TimeStamp,Delta_TP9,Delta_AF7,Delta_AF8,Delta_TP10,Theta_TP9,Theta_AF7,Theta_AF8,Theta_TP10,Alpha_TP9,Alpha_AF7,Alpha_AF8,Alpha_TP10,Beta_TP9,Beta_AF7,Beta_AF8,Beta_TP10,Gamma_TP9,Gamma_AF7,Gamma_AF8,Gamma_TP10,RAW_TP9,RAW_AF7,RAW_AF8,RAW_TP10,AUX_RIGHT,Accelerometer_X,Accelerometer_Y,Accelerometer_Z,Gyro_X,Gyro_Y,Gyro_Z,HeadBandOn,HSI_TP9,HSI_AF7,HSI_AF8,HSI_TP10,Battery,Elements
2023-08-18 19:13:38.210,,,,,,,,,,,,,,,,,,,,,,,,,,,,,,,,,,,,,,/muse/event/connected Muse-C549
2023-08-18 19:13:38.238,1.3160619,-0.11792378,0.0,1.2749779,1.0515313,-0.15342179,0.0,1.1800152,0.821702,0.04018356,0.0,1.311607,0.83178,-0.13439716,0.0,0.8226019,0.58908236,-0.639285,0.0,0.07297932,1018.60803,795.38464,1027.8755,919.4872,783.2967,0.21527099609375,0.1951904296875,0.9576416015625,4.91973876953125,-5.7720947265625,1.188812255859375,1,1.0,1.0,2.0,1.0,40.00
2023-08-18 19:13:38.505,,,,,,,,,,,,,,,,,,,,,,,,,,,,,,,,,,,,,,/muse/elements/jaw_clench
2023-08-18 19:13:38.670,,,,,,,,,,,,,,,,,,,,,,,,,,,,,,,,,,,,,,/muse/elements/blink
2023-08-18 19:13:39.243,1.3160619,0.06758967,0.0,1.3916458,1.0515313,-0.098615155,0.0,1.3283203,0.821702,0.32057795,0.0,1.2924691,0.83178,-0.014302935,0.0,0.82856447,0.58908236,-0.481554,0.0,0.089236714,371.50183,805.8608,743.00366,566.52014,888.0586,0.19793701171875,0.18695068359375,0.962646484375,2.6318359375,2.429962158203125,0.22430419921875,1,1.0,1.0,2.0,1.0,40.00
2023-08-18 19:13:40.016,,,,,,,,,,,,,,,,,,,,,,,,,,,,,,,,,,,,,,/muse/elements/blink
2023-08-18 19:13:40.246,1.3160619,0.29962152,0.0,1.3916458,1.0515313,0.41576117,0.0,1.3283203,0.821702,0.27042973,0.0,1.2924691,0.83178,0.11267552,0.0,0.82856447,0.58908236,-0.5320143,0.0,0.089236714,346.92307,798.60803,844.94507,850.58606,701.0989,0.0283203125,0.2332763671875,0.98406982421875,16.426544189453125,-12.979736328125,-45.287017822265625,1,2.0,1.0,2.0,2.0,40.00
2023-08-18 19:13:40.520,,,,,,,,,,,,,,,,,,,,,,,,,,,,,,,,,,,,,,/muse/elements/jaw_clench
2023-08-18 19:13:41.117,,,,,,,,,,,,,,,,,,,,,,,,,,,,,,,,,,,,,,/muse/elements/blink
2023-08-18 19:13:41.257,1.3160619,0.45029637,0.0,1.3916458,1.0515313,0.44088918,0.0,1.3283203,0.821702,0.13688767,0.0,1.2924691,0.83178,-0.10966343,0.0,0.82856447,0.58908236,-0.47647294,0.0,0.089236714,292.12454,777.25275,695.4579,222.01465,755.4945,0.09088134765625,0.20660400390625,0.99969482421875,-15.439605712890625,-13.151702880859375,84.517822265625,1,2.0,1.0,2.0,2.0,40.00
2023-08-18 19:13:41.385,,,,,,,,,,,,,,,,,,,,,,,,,,,,,,,,,,,,,,/muse/elements/blink
2023-08-18 19:13:41.810,,,,,,,,,,,,,,,,,,,,,,,,,,,,,,,,,,,,,,/muse/elements/blink
2023-08-18 19:13:41.810,,,,,,,,,,,,,,,,,,,,,,,,,,,,,,,,,,,,,,/muse/elements/jaw_clench
2023-08-18 19:13:42.136,,,,,,,,,,,,,,,,,,,,,,,,,,,,,,,,,,,,,,/muse/elements/blink
2023-08-18 19:13:42.269,1.3160619,0.56048065,0.0,1.3916458,1.0515313,0.35711092,0.0,1.3283203,0.821702,0.38579863,0.0,1.2924691,0.83178,-0.20231315,0.0,0.82856447,0.58908236,-0.3395949,0.0,0.089236714,1407.4359,793.7729,1019.41394,1065.348,896.9231,-0.01971435546875,0.04443359375,0.97772216796875,13.68255615234375,-10.64697265625,-17.764892578125,1,4.0,1.0,2.0,4.0,40.00
2023-08-18 19:13:42.597,,,,,,,,,,,,,,,,,,,,,,,,,,,,,,,,,,,,,,/muse/elements/blink
2023-08-18 19:13:43.206,,,,,,,,,,,,,,,,,,,,,,,,,,,,,,,,,,,,,,/muse/elements/blink
2023-08-18 19:13:43.273,1.3160619,1.0864294,0.0,1.3916458,1.0515313,0.49004582,0.0,1.3283203,0.821702,0.46843684,0.0,1.2924691,0.83178,0.030483577,0.0,0.82856447,0.58908236,-0.29680976,0.0,0.089236714,593.1135,780.4762,930.7692,1239.8169,719.6337,0.588623046875,0.1763916015625,1.07415771484375,5.75714111328125,-21.21917724609375,1.12152099609375,1,4.0,1.0,2.0,4.0,40.00
2023-08-18 19:13:43.375,,,,,,,,,,,,,,,,,,,,,,,,,,,,,,,,,,,,,,/muse/elements/jaw_clench
2023-08-18 19:13:43.563,,,,,,,,,,,,,,,,,,,,,,,,,,,,,,,,,,,,,,/muse/elements/blink
2023-08-18 19:13:44.179,,,,,,,,,,,,,,,,,,,,,,,,,,,,,,,,,,,,,,/muse/elements/jaw_clench
2023-08-18 19:13:44.276,1.3160619,1.228054,0.0,1.3916458,1.0515313,0.566311,0.0,1.3283203,0.821702,0.4447881,0.0,1.2924691,0.83178,-0.024022227,0.0,0.82856447,0.58908236,-0.38294452,0.0,0.089236714,312.27106,776.04395,397.69232,0.0,46.739925,0.3021240234375,0.13787841796875,1.03350830078125,5.99639892578125,-15.858306884765625,-78.06533813476562,1,4.0,1.0,2.0,4.0,40.00
2023-08-18 19:13:44.339,,,,,,,,,,,,,,,,,,,,,,,,,,,,,,,,,,,,,,/muse/elements/blink
2023-08-18 19:13:44.574,,,,,,,,,,,,,,,,,,,,,,,,,,,,,,,,,,,,,,/muse/elements/blink
2023-08-18 19:13:45.295,1.3160619,1.3035806,0.0,1.3916458,1.0515313,0.67078096,0.0,1.3283203,0.821702,0.062067717,0.0,1.2924691,0.83178,0.02735776,0.0,0.82856447,0.58908236,-0.32659137,0.0,0.089236714,0.0,796.5934,352.16116,0.8058608,0.0,0.01165771484375,0.32904052734375,0.89862060546875,7.65625,-10.071258544921875,-25.31646728515625,1,4.0,1.0,4.0,4.0,40.00
2023-08-18 19:13:45.380,,,,,,,,,,,,,,,,,,,,,,,,,,,,,,,,,,,,,,/muse/elements/blink
2023-08-18 19:13:45.380,,,,,,,,,,,,,,,,,,,,,,,,,,,,,,,,,,,,,,/muse/elements/jaw_clench
2023-08-18 19:13:45.661,,,,,,,,,,,,,,,,,,,,,,,,,,,,,,,,,,,,,,/muse/elements/blink
2023-08-18 19:13:46.008,,,,,,,,,,,,,,,,,,,,,,,,,,,,,,,,,,,,,,/muse/elements/blink
2023-08-18 19:13:46.299,1.3160619,0.6240338,0.0,1.3916458,1.0515313,0.36371043,0.0,1.3283203,0.821702,0.25013176,0.0,1.2924691,0.83178,0.029647807,0.0,0.82856447,0.58908236,-0.52575564,0.0,0.089236714,0.0,794.17584,731.31866,0.0,0.0,0.091552734375,-0.09051513671875,1.0386962890625,-0.067291259765625,-22.826690673828125,-7.813262939453125,1,4.0,1.0,4.0,4.0,40.00
2023-08-18 19:13:46.707,,,,,,,,,,,,,,,,,,,,,,,,,,,,,,,,,,,,,,/muse/elements/blink
2023-08-18 19:13:47.303,1.3160619,0.5522767,0.0,1.3916458,1.0515313,0.31157354,0.0,1.3283203,0.821702,0.445981,0.0,1.2924691,0.83178,0.06296257,0.0,0.82856447,0.58908236,-0.5193948,0.0,0.089236714,597.9487,784.90845,807.8755,309.0476,514.1392,0.3671875,0.3104248046875,0.9190673828125,9.338531494140625,-6.990814208984375,14.721832275390625,1,4.0,1.0,2.0,4.0,40.00
2023-08-18 19:13:47.401,,,,,,,,,,,,,,,,,,,,,,,,,,,,,,,,,,,,,,/muse/elements/blink
2023-08-18 19:13:47.923,,,,,,,,,,,,,,,,,,,,,,,,,,,,,,,,,,,,,,/muse/elements/blink
2023-08-18 19:13:48.252,,,,,,,,,,,,,,,,,,,,,,,,,,,,,,,,,,,,,,/muse/elements/blink
2023-08-18 19:13:48.316,1.3160619,0.35835156,0.0,1.3916458,1.0515313,0.12350246,0.0,1.3283203,0.821702,0.447735,0.0,1.2924691,0.83178,-0.055262957,0.0,0.82856447,0.58908236,-0.6575207,0.0,0.089236714,535.89746,788.5348,1085.8975,0.0,369.48718,0.42315673828125,0.22332763671875,0.8699951171875,3.521575927734375,-8.037567138671875,-5.973968505859375,1,4.0,1.0,2.0,4.0,40.00
2023-08-18 19:13:48.409,,,,,,,,,,,,,,,,,,,,,,,,,,,,,,,,,,,,,,/muse/elements/blink
2023-08-18 19:13:48.632,,,,,,,,,,,,,,,,,,,,,,,,,,,,,,,,,,,,,,/muse/elements/jaw_clench
2023-08-18 19:13:48.849,,,,,,,,,,,,,,,,,,,,,,,,,,,,,,,,,,,,,,/muse/elements/blink
2023-08-18 19:13:49.142,,,,,,,,,,,,,,,,,,,,,,,,,,,,,,,,,,,,,,/muse/elements/blink
2023-08-18 19:13:49.320,1.3160619,0.32941744,0.0,1.3916458,1.0515313,0.24951017,0.0,1.3283203,0.821702,0.33976063,0.0,1.2924691,0.83178,-0.07046385,0.0,0.82856447,0.58908236,-0.50316334,0.0,0.089236714,1620.586,786.9231,1565.3846,1124.1758,867.9121,0.433837890625,0.3121337890625,0.8458251953125,-2.504730224609375,-3.835601806640625,-5.076751708984375,1,4.0,1.0,2.0,4.0,40.00
2023-08-18 19:13:49.437,,,,,,,,,,,,,,,,,,,,,,,,,,,,,,,,,,,,,,/muse/elements/jaw_clench
2023-08-18 19:13:49.569,,,,,,,,,,,,,,,,,,,,,,,,,,,,,,,,,,,,,,/muse/elements/blink
2023-08-18 19:13:50.322,1.3160619,0.85461575,0.0,1.3916458,1.0515313,0.17314786,0.0,1.3283203,0.821702,0.17877463,0.0,1.2924691,0.83178,-0.12879738,0.0,0.82856447,0.58908236,-0.4770329,0.0,0.089236714,843.73627,784.10254,340.87912,1621.392,1237.3993,-0.04534912109375,0.3328857421875,0.91595458984375,-12.860107421875,-17.18170166015625,-37.914886474609375,1,4.0,1.0,4.0,4.0,40.00
2023-08-18 19:13:50.667,,,,,,,,,,,,,,,,,,,,,,,,,,,,,,,,,,,,,,/muse/elements/blink
2023-08-18 19:13:51.028,,,,,,,,,,,,,,,,,,,,,,,,,,,,,,,,,,,,,,/muse/elements/blink
2023-08-18 19:13:51.284,,,,,,,,,,,,,,,,,,,,,,,,,,,,,,,,,,,,,,/muse/elements/blink
2023-08-18 19:13:51.326,1.3160619,1.3047305,0.0,1.3916458,1.0515313,0.4179967,0.0,1.3283203,0.821702,0.14953782,0.0,1.2924691,0.83178,-0.06262832,0.0,0.82856447,0.58908236,-0.42978626,0.0,0.089236714,1249.0842,787.326,775.2381,1317.5824,983.1502,-0.05340576171875,0.0328369140625,0.96112060546875,13.630218505859375,-6.003875732421875,-14.168548583984375,1,4.0,1.0,4.0,4.0,40.00
2023-08-18 19:13:51.741,,,,,,,,,,,,,,,,,,,,,,,,,,,,,,,,,,,,,,/muse/elements/blink
2023-08-18 19:13:52.295,,,,,,,,,,,,,,,,,,,,,,,,,,,,,,,,,,,,,,/muse/elements/blink
2023-08-18 19:13:52.342,1.3160619,1.0784547,0.0,1.3916458,1.0515313,0.3261805,0.0,1.3283203,0.821702,0.27131099,0.0,1.2924691,0.83178,0.03737068,0.0,0.82856447,0.58908236,-0.4909838,0.0,0.089236714,0.0,770.0,360.2198,0.0,2.014652,-0.1207275390625,0.0523681640625,0.9027099609375,-6.3702392578125,5.42816162109375,32.31475830078125,1,4.0,1.0,4.0,4.0,40.00
2023-08-18 19:13:52.511,,,,,,,,,,,,,,,,,,,,,,,,,,,,,,,,,,,,,,/muse/elements/jaw_clench
2023-08-18 19:13:52.857,,,,,,,,,,,,,,,,,,,,,,,,,,,,,,,,,,,,,,/muse/elements/blink
2023-08-18 19:13:53.354,1.3160619,1.0929004,0.0,1.3916458,1.0515313,0.35734177,0.0,1.3283203,0.821702,0.2606918,0.0,1.2924691,0.83178,0.034587488,0.0,0.82856447,0.58908236,-0.47703162,0.0,0.089236714,1618.5714,800.2198,1135.4579,1324.8352,1022.23444,-0.19635009765625,0.13800048828125,0.88116455078125,2.684173583984375,-6.4300537109375,-23.10333251953125,1,4.0,1.0,4.0,4.0,40.00
2023-08-18 19:13:53.597,,,,,,,,,,,,,,,,,,,,,,,,,,,,,,,,,,,,,,/muse/elements/jaw_clench
2023-08-18 19:13:54.366,1.3160619,0.7215932,0.0,1.3916458,1.0515313,0.4803061,0.0,1.3283203,0.821702,0.3149057,0.0,1.2924691,0.83178,0.020892339,0.0,0.82856447,0.58908236,-0.44328946,0.0,0.089236714,1124.5787,779.2674,840.10986,1139.0842,893.2967,-0.01434326171875,0.2412109375,0.8175048828125,4.53094482421875,-11.49932861328125,-24.337005615234375,1,4.0,1.0,4.0,4.0,40.00
2023-08-18 19:13:54.530,,,,,,,,,,,,,,,,,,,,,,,,,,,,,,,,,,,,,,/muse/elements/jaw_clench
2023-08-18 19:13:54.797,,,,,,,,,,,,,,,,,,,,,,,,,,,,,,,,,,,,,,/muse/elements/jaw_clench
2023-08-18 19:13:55.026,,,,,,,,,,,,,,,,,,,,,,,,,,,,,,,,,,,,,,/muse/elements/blink
2023-08-18 19:13:55.373,1.3160619,0.2818111,0.0,1.3916458,1.0515313,0.4025177,0.0,1.3283203,0.821702,0.20461139,0.0,1.2924691,0.83178,0.009520602,0.0,0.82856447,0.58908236,-0.58557034,0.0,0.089236714,0.0,784.90845,821.5751,566.52014,372.71063,0.075439453125,0.05322265625,0.9061279296875,6.796417236328125,-21.54815673828125,-26.66229248046875,1,4.0,1.0,4.0,4.0,40.00
2023-08-18 19:13:55.420,,,,,,,,,,,,,,,,,,,,,,,,,,,,,,,,,,,,,,/muse/elements/blink
2023-08-18 19:13:56.382,1.3160619,0.28747484,0.0,1.3916458,1.0515313,0.07847179,0.0,1.3283203,0.821702,0.2943146,0.0,1.2924691,0.83178,-0.09311455,0.0,0.82856447,0.58908236,-0.6146709,0.0,0.089236714,0.0,788.5348,452.08792,0.0,468.60806,0.3006591796875,0.1544189453125,1.01666259765625,-0.478515625,-22.976226806640625,-25.85479736328125,1,4.0,1.0,4.0,4.0,40.00
2023-08-18 19:13:56.451,,,,,,,,,,,,,,,,,,,,,,,,,,,,,,,,,,,,,,/muse/elements/blink
2023-08-18 19:13:57.386,,,,,,,,,,,,,,,,,,,,,,,,,,,,,,,,,,,,,,/muse/elements/blink
2023-08-18 19:13:57.387,1.3160619,0.4873615,0.0,1.3916458,1.0515313,0.3279662,0.0,1.3283203,0.821702,0.34752658,0.0,1.2924691,0.83178,-0.07729715,0.0,0.82856447,0.58908236,-0.43745252,0.0,0.089236714,1290.1831,787.72894,1122.1611,1405.8242,1038.7546,0.32073974609375,0.255859375,0.9117431640625,-8.845062255859375,10.45257568359375,-25.308990478515625,1,2.0,1.0,2.0,2.0,40.00
2023-08-18 19:13:57.548,,,,,,,,,,,,,,,,,,,,,,,,,,,,,,,,,,,,,,/muse/elements/jaw_clench
2023-08-18 19:13:58.391,1.3160619,0.8428031,0.0,1.3916458,1.0515313,0.50198674,0.0,1.3283203,0.821702,0.13512407,0.0,1.2924691,0.83178,-0.21578905,0.0,0.82856447,0.58908236,-0.3694187,0.0,0.089236714,0.0,780.4762,819.9634,0.0,0.0,-0.206787109375,0.02020263671875,0.95635986328125,-3.93280029296875,3.24493408203125,34.88677978515625,1,4.0,1.0,2.0,4.0,40.00
2023-08-18 19:13:58.689,,,,,,,,,,,,,,,,,,,,,,,,,,,,,,,,,,,,,,/muse/elements/blink
2023-08-18 19:13:59.104,,,,,,,,,,,,,,,,,,,,,,,,,,,,,,,,,,,,,,/muse/elements/jaw_clench
2023-08-18 19:13:59.294,,,,,,,,,,,,,,,,,,,,,,,,,,,,,,,,,,,,,,/muse/elements/blink
2023-08-18 19:13:59.398,1.3160619,0.70704204,0.0,1.3916458,1.0515313,0.51473284,0.0,1.3283203,0.821702,0.40395352,0.0,1.2924691,0.83178,0.21370542,0.0,0.82856447,0.58908236,-0.14408626,0.0,0.089236714,1620.586,784.10254,1211.6117,1620.989,1620.989,-0.21673583984375,0.1402587890625,0.91851806640625,0.246734619140625,-4.523468017578125,-3.8580322265625,1,4.0,1.0,2.0,4.0,40.00
2023-08-18 19:13:59.820,,,,,,,,,,,,,,,,,,,,,,,,,,,,,,,,,,,,,,/muse/elements/blink
2023-08-18 19:14:00.183,,,,,,,,,,,,,,,,,,,,,,,,,,,,,,,,,,,,,,/muse/elements/blink
2023-08-18 19:14:00.408,1.3160619,1.011893,0.0,1.3916458,1.0515313,0.6165699,0.0,1.3283203,0.821702,0.4705371,0.0,1.2924691,0.83178,0.14255977,0.0,0.82856447,0.58908236,-0.20899929,0.0,0.089236714,477.0696,784.10254,839.707,102.74725,415.42123,-0.27362060546875,0.09027099609375,1.14892578125,13.271331787109375,-0.934600830078125,3.887939453125,1,4.0,1.0,4.0,4.0,40.00
2023-08-18 19:14:00.628,,,,,,,,,,,,,,,,,,,,,,,,,,,,,,,,,,,,,,/muse/elements/jaw_clench
2023-08-18 19:14:00.794,,,,,,,,,,,,,,,,,,,,,,,,,,,,,,,,,,,,,,/muse/elements/jaw_clench
2023-08-18 19:14:00.922,,,,,,,,,,,,,,,,,,,,,,,,,,,,,,,,,,,,,,/muse/elements/blink
2023-08-18 19:14:01.331,,,,,,,,,,,,,,,,,,,,,,,,,,,,,,,,,,,,,,/muse/elements/blink
2023-08-18 19:14:01.412,1.3160619,0.85659367,0.0,1.3916458,1.0515313,0.45741636,0.0,1.3283203,0.821702,0.397426,0.0,1.2924691,0.83178,0.072811104,0.0,0.82856447,0.58908236,-0.4208238,0.0,0.089236714,118.05861,777.25275,615.2747,1282.1245,1130.2197,-0.07366943359375,0.03472900390625,0.9326171875,4.044952392578125,-23.2977294921875,2.7813720703125,1,4.0,1.0,4.0,4.0,40.00
2023-08-18 19:14:01.494,,,,,,,,,,,,,,,,,,,,,,,,,,,,,,,,,,,,,,/muse/elements/jaw_clench
2023-08-18 19:14:01.725,,,,,,,,,,,,,,,,,,,,,,,,,,,,,,,,,,,,,,/muse/elements/blink
2023-08-18 19:14:02.252,,,,,,,,,,,,,,,,,,,,,,,,,,,,,,,,,,,,,,/muse/elements/blink
2023-08-18 19:14:02.421,1.3160619,0.74742824,0.0,1.3916458,1.0515313,0.41781607,0.0,1.3283203,0.821702,0.26087156,0.0,1.2924691,0.83178,-0.058197618,0.0,0.82856447,0.58908236,-0.4583454,0.0,0.089236714,885.2381,792.5641,1210.403,366.66666,479.08426,-0.0584716796875,0.1806640625,1.25885009765625,6.183319091796875,4.62066650390625,30.2960205078125,1,4.0,1.0,4.0,4.0,40.00
2023-08-18 19:14:03.238,,,,,,,,,,,,,,,,,,,,,,,,,,,,,,,,,,,,,,/muse/elements/blink
2023-08-18 19:14:03.432,1.3160619,0.5970439,0.0,1.3916458,1.0515313,0.1707577,0.0,1.3283203,0.821702,0.21525742,0.0,1.2924691,0.83178,-0.045227118,0.0,0.82856447,0.58908236,-0.58025867,0.0,0.089236714,765.16486,782.8938,1185.0183,1169.7069,1067.3627,0.13189697265625,0.21038818359375,0.8677978515625,5.5328369140625,-9.19647216796875,13.9068603515625,1,4.0,1.0,4.0,4.0,40.00
2023-08-18 19:14:03.960,,,,,,,,,,,,,,,,,,,,,,,,,,,,,,,,,,,,,,/muse/elements/blink
2023-08-18 19:14:04.058,,,,,,,,,,,,,,,,,,,,,,,,,,,,,,,,,,,,,,/muse/elements/jaw_clench
2023-08-18 19:14:04.256,,,,,,,,,,,,,,,,,,,,,,,,,,,,,,,,,,,,,,/muse/elements/blink
2023-08-18 19:14:04.436,1.3160619,0.5749202,0.0,1.3916458,1.0515313,0.15904303,0.0,1.3283203,0.821702,0.19171774,0.0,1.2924691,0.83178,0.091669716,0.0,0.82856447,0.58908236,-0.47104517,0.0,0.089236714,1620.989,786.52014,1106.044,1620.989,1510.586,0.30279541015625,0.056640625,1.08306884765625,2.669219970703125,-19.1705322265625,-12.142333984375,1,4.0,1.0,4.0,4.0,40.00
2023-08-18 19:14:04.453,,,,,,,,,,,,,,,,,,,,,,,,,,,,,,,,,,,,,,/muse/elements/jaw_clench
2023-08-18 19:14:04.887,,,,,,,,,,,,,,,,,,,,,,,,,,,,,,,,,,,,,,/muse/elements/blink
2023-08-18 19:14:04.887,,,,,,,,,,,,,,,,,,,,,,,,,,,,,,,,,,,,,,/muse/elements/jaw_clench
2023-08-18 19:14:05.299,,,,,,,,,,,,,,,,,,,,,,,,,,,,,,,,,,,,,,/muse/elements/blink
2023-08-18 19:14:05.458,1.3160619,0.33617654,0.0,1.3916458,1.0515313,0.14573738,0.0,1.3283203,0.821702,0.17000307,0.0,1.2924691,0.83178,0.06630927,0.0,0.82856447,0.58908236,-0.51844144,0.0,0.089236714,1554.1025,782.0879,1164.4689,1512.6007,983.1502,0.44952392578125,0.23748779296875,0.85870361328125,6.92352294921875,-4.867401123046875,6.3104248046875,1,4.0,1.0,2.0,4.0,40.00
2023-08-18 19:14:06.363,,,,,,,,,,,,,,,,,,,,,,,,,,,,,,,,,,,,,,/muse/elements/blink
2023-08-18 19:14:06.472,1.3160619,0.011206618,0.0,1.3916458,1.0515313,-0.14039528,0.0,1.3283203,0.821702,0.036036443,0.0,1.2924691,0.83178,-0.08839979,0.0,0.82856447,0.58908236,-0.5320972,0.0,0.089236714,1088.7179,781.685,1025.8608,1005.7143,850.989,0.45989990234375,0.23748779296875,0.85028076171875,5.72723388671875,-6.273040771484375,3.222503662109375,1,2.0,1.0,2.0,2.0,40.00
2023-08-18 19:14:07.476,1.3160619,-0.12996331,0.0,1.3916458,1.0515313,-0.3370492,0.0,1.3283203,0.821702,0.03186975,0.0,1.2924691,0.83178,-0.083614066,0.0,0.82856447,0.58908236,-0.3104725,0.0,0.089236714,1216.4469,786.52014,983.1502,990.80585,823.9927,0.47052001953125,0.24346923828125,0.8458251953125,4.702911376953125,-4.844970703125,1.203765869140625,1,2.0,1.0,2.0,2.0,40.00
2023-08-18 19:14:07.595,,,,,,,,,,,,,,,,,,,,,,,,,,,,,,,,,,,,,,/muse/elements/blink
2023-08-18 19:14:08.481,1.3160619,0.018656908,0.0,1.0686648,1.0515313,-0.42716554,0.0,0.86632884,0.821702,0.023927696,0.0,0.92891246,0.83178,0.04967565,0.0,0.6719498,0.58908236,-0.22560115,0.0,0.24230213,504.46887,786.9231,1036.337,702.71063,699.0842,0.4659423828125,0.2479248046875,0.85272216796875,5.271148681640625,-5.48797607421875,0.88226318359375,1,2.0,1.0,2.0,2.0,40.00
2023-08-18 19:14:08.972,,,,,,,,,,,,,,,,,,,,,,,,,,,,,,,,,,,,,,/muse/elements/blink
2023-08-18 19:14:09.500,1.3160619,-0.13112232,0.0,1.1134182,1.0515313,-0.4017132,0.0,0.98853517,0.821702,0.21196842,0.0,0.9543177,0.83178,0.114258565,0.0,0.69691664,0.58908236,-0.1886273,0.0,0.22336723,959.3773,780.07324,780.87915,884.43225,916.26373,0.46661376953125,0.25146484375,0.84625244140625,5.09918212890625,-4.807586669921875,0.85235595703125,1,1.0,1.0,2.0,1.0,40.00
2023-08-18 19:14:10.295,,,,,,,,,,,,,,,,,,,,,,,,,,,,,,,,,,,,,,/muse/elements/blink
2023-08-18 19:14:10.507,1.3160619,-0.2246043,0.0,1.0969263,1.0515313,-0.14265864,0.0,0.86954635,0.821702,0.3086339,0.0,0.9698296,0.83178,-0.01590181,0.0,0.601679,0.58908236,-0.3444499,0.0,0.26189917,422.67398,786.52014,771.6117,661.2088,795.38464,0.46563720703125,0.2503662109375,0.84576416015625,5.203857421875,-5.106658935546875,1.1962890625,1,1.0,1.0,2.0,1.0,35.00
2023-08-18 19:14:11.487,,,,,,,,,,,,,,,,,,,,,,,,,,,,,,,,,,,,,,/muse/elements/blink
2023-08-18 19:14:11.517,1.4535826,-0.19539642,0.0,1.1504965,0.85443866,-0.24449417,0.0,0.6861937,0.9590008,0.36118752,0.0,0.8564732,1.30973,0.009598071,0.0,0.9239351,1.1373578,-0.4426167,0.0,0.20407829,1057.6923,786.1172,1045.6044,1137.8755,900.54944,0.478759765625,0.25360107421875,0.8267822265625,3.30474853515625,-4.97955322265625,-0.306549072265625,1,1.0,1.0,2.0,1.0,35.00
2023-08-18 19:14:12.084,,,,,,,,,,,,,,,,,,,,,,,,,,,,,,,,,,,,,,/muse/elements/blink
2023-08-18 19:14:12.521,1.4535826,-0.027810585,0.0,1.3914545,0.85443866,-0.09491983,0.0,0.7373585,0.9590008,0.54772764,0.0,0.7973786,1.30973,-0.04685856,0.0,0.95207787,1.1373578,-0.40882412,0.0,0.2756135,720.0366,783.2967,945.6777,718.4249,721.6484,0.4932861328125,0.2052001953125,0.83221435546875,5.99639892578125,-6.92352294921875,5.90667724609375,1,2.0,1.0,2.0,4.0,35.00
2023-08-18 19:14:12.703,,,,,,,,,,,,,,,,,,,,,,,,,,,,,,,,,,,,,,/muse/elements/blink
2023-08-18 19:14:13.424,,,,,,,,,,,,,,,,,,,,,,,,,,,,,,,,,,,,,,/muse/elements/blink
2023-08-18 19:14:13.529,1.4535826,-0.035416685,0.0,1.3914545,0.85443866,-0.34750786,0.0,0.7373585,0.9590008,0.3971954,0.0,0.7973786,1.30973,-0.07604447,0.0,0.95207787,1.1373578,-0.45842302,0.0,0.2756135,0.0,782.8938,513.73627,988.3883,776.8498,0.488525390625,-0.01239013671875,0.91943359375,-1.375732421875,-2.7215576171875,51.283416748046875,1,4.0,1.0,2.0,4.0,35.00
2023-08-18 19:14:13.594,,,,,,,,,,,,,,,,,,,,,,,,,,,,,,,,,,,,,,/muse/elements/jaw_clench
2023-08-18 19:14:13.821,,,,,,,,,,,,,,,,,,,,,,,,,,,,,,,,,,,,,,/muse/elements/blink
2023-08-18 19:14:14.019,,,,,,,,,,,,,,,,,,,,,,,,,,,,,,,,,,,,,,/muse/elements/blink
2023-08-18 19:14:14.443,,,,,,,,,,,,,,,,,,,,,,,,,,,,,,,,,,,,,,/muse/elements/blink
2023-08-18 19:14:14.540,1.4535826,0.3887753,0.0,1.3914545,0.85443866,0.25016475,0.0,0.7373585,0.9590008,0.32533246,0.0,0.7973786,1.30973,-0.19003296,0.0,0.95207787,1.1373578,-0.45797783,0.0,0.2756135,886.8498,782.49084,1334.1025,5.6410255,723.663,0.5050048828125,0.22845458984375,0.62799072265625,13.974151611328125,0.19439697265625,15.95550537109375,1,4.0,1.0,4.0,4.0,35.00
2023-08-18 19:14:15.233,,,,,,,,,,,,,,,,,,,,,,,,,,,,,,,,,,,,,,/muse/elements/blink
2023-08-18 19:14:15.530,,,,,,,,,,,,,,,,,,,,,,,,,,,,,,,,,,,,,,/muse/elements/blink
2023-08-18 19:14:15.543,1.4535826,0.97705305,0.0,1.3914545,0.85443866,0.611547,0.0,0.7373585,0.9590008,0.6472785,0.0,0.7973786,1.30973,-0.13528685,0.0,0.95207787,1.1373578,-0.37441248,0.0,0.2756135,0.0,807.0696,982.74725,794.57874,290.91574,0.57000732421875,0.1044921875,0.70855712890625,15.53680419921875,8.964691162109375,-21.96685791015625,1,4.0,1.0,4.0,4.0,35.00
2023-08-18 19:14:16.553,1.4535826,1.1094567,0.0,1.3914545,0.85443866,0.60749304,0.0,0.7373585,0.9590008,0.6491398,0.0,0.7973786,1.30973,0.12110342,0.0,0.95207787,1.1373578,-0.3867775,0.0,0.2756135,1065.348,770.0,444.0293,1621.392,1284.9451,0.04595947265625,0.2076416015625,0.9564208984375,2.0037841796875,9.577789306640625,20.26214599609375,1,4.0,1.0,4.0,4.0,35.00
2023-08-18 19:14:17.061,,,,,,,,,,,,,,,,,,,,,,,,,,,,,,,,,,,,,,/muse/elements/jaw_clench
2023-08-18 19:14:17.159,,,,,,,,,,,,,,,,,,,,,,,,,,,,,,,,,,,,,,/muse/elements/blink
2023-08-18 19:14:17.357,,,,,,,,,,,,,,,,,,,,,,,,,,,,,,,,,,,,,,/muse/elements/blink
2023-08-18 19:14:17.564,1.4535826,1.2134652,0.0,1.3914545,0.85443866,0.68581724,0.0,0.7373585,0.9590008,0.39127585,0.0,0.7973786,1.30973,0.07403729,0.0,0.95207787,1.1373578,-0.38713944,0.0,0.2756135,1421.1355,782.8938,1067.3627,1000.07324,727.6923,0.08270263671875,0.2322998046875,0.9666748046875,5.48797607421875,-2.235565185546875,9.1815185546875,1,4.0,1.0,2.0,4.0,35.00
2023-08-18 19:14:17.700,,,,,,,,,,,,,,,,,,,,,,,,,,,,,,,,,,,,,,/muse/elements/blink
2023-08-18 19:14:17.979,,,,,,,,,,,,,,,,,,,,,,,,,,,,,,,,,,,,,,/muse/elements/blink
2023-08-18 19:14:18.390,,,,,,,,,,,,,,,,,,,,,,,,,,,,,,,,,,,,,,/muse/elements/blink
2023-08-18 19:14:18.567,,,,,,,,,,,,,,,,,,,,,,,,,,,,,,,,,,,,,,/muse/elements/blink
2023-08-18 19:14:18.568,1.4535826,0.8008298,0.0,1.3914545,0.85443866,0.35938168,0.0,0.7373585,0.9590008,0.53418607,0.0,0.7973786,1.30973,-0.051431097,0.0,0.95207787,1.1373578,-0.51889074,0.0,0.2756135,1142.7106,784.90845,937.2161,1620.989,1109.6703,-0.084716796875,0.21893310546875,0.946533203125,-8.426361083984375,20.493927001953125,27.3052978515625,1,4.0,1.0,4.0,4.0,35.00
2023-08-18 19:14:18.982,,,,,,,,,,,,,,,,,,,,,,,,,,,,,,,,,,,,,,/muse/elements/blink
2023-08-18 19:14:19.311,,,,,,,,,,,,,,,,,,,,,,,,,,,,,,,,,,,,,,/muse/elements/jaw_clench
2023-08-18 19:14:19.579,1.4535826,0.7855067,0.0,1.3914545,0.85443866,0.50107133,0.0,0.7373585,0.9590008,0.4989446,0.0,0.7973786,1.30973,0.065042704,0.0,0.95207787,1.1373578,-0.4228865,0.0,0.2756135,485.53113,801.8315,740.989,452.49084,650.32965,0.057373046875,0.10845947265625,0.937255859375,3.72344970703125,-46.573028564453125,-14.78912353515625,1,4.0,1.0,4.0,4.0,35.00
2023-08-18 19:14:19.609,,,,,,,,,,,,,,,,,,,,,,,,,,,,,,,,,,,,,,/muse/elements/blink
2023-08-18 19:14:20.296,,,,,,,,,,,,,,,,,,,,,,,,,,,,,,,,,,,,,,/muse/elements/blink
2023-08-18 19:14:20.528,,,,,,,,,,,,,,,,,,,,,,,,,,,,,,,,,,,,,,/muse/elements/blink
2023-08-18 19:14:20.589,1.4535826,0.76900136,0.0,1.3914545,0.85443866,0.54364747,0.0,0.7373585,0.9590008,0.28197464,0.0,0.7973786,1.30973,-0.11430232,0.0,0.95207787,1.1373578,-0.4431002,0.0,0.2756135,1620.586,765.9707,1209.597,1621.392,1576.2638,0.14117431640625,0.07550048828125,0.9873046875,7.977752685546875,3.2598876953125,-4.523468017578125,1,4.0,1.0,2.0,2.0,40.00
2023-08-18 19:14:20.809,,,,,,,,,,,,,,,,,,,,,,,,,,,,,,,,,,,,,,/muse/elements/jaw_clench
2023-08-18 19:14:21.002,,,,,,,,,,,,,,,,,,,,,,,,,,,,,,,,,,,,,,/muse/elements/blink
2023-08-18 19:14:21.595,1.4535826,0.49267274,0.0,1.3914545,0.85443866,0.21260665,0.0,0.7373585,0.9590008,0.14783946,0.0,0.7973786,1.30973,0.01168016,0.0,0.95207787,1.1373578,-0.4341949,0.0,0.2756135,1220.8792,775.2381,1041.1721,1230.9524,954.1392,-0.0828857421875,0.084716796875,1.00164794921875,5.689849853515625,2.97576904296875,-0.94207763671875,1,4.0,1.0,2.0,2.0,40.00
2023-08-18 19:14:21.626,,,,,,,,,,,,,,,,,,,,,,,,,,,,,,,,,,,,,,/muse/elements/blink
2023-08-18 19:14:22.234,,,,,,,,,,,,,,,,,,,,,,,,,,,,,,,,,,,,,,/muse/elements/blink
2023-08-18 19:14:22.548,,,,,,,,,,,,,,,,,,,,,,,,,,,,,,,,,,,,,,/muse/elements/blink
2023-08-18 19:14:22.601,1.4535826,0.19175951,0.0,1.3914545,0.85443866,0.20281598,0.0,0.7373585,0.9590008,0.09835086,0.0,0.7973786,1.30973,-0.023440741,0.0,0.95207787,1.1373578,-0.37980166,0.0,0.2756135,224.0293,773.6264,689.41394,0.0,543.5531,-0.107666015625,0.13323974609375,0.98345947265625,-0.859832763671875,1.039276123046875,-6.751556396484375,1,4.0,1.0,4.0,4.0,40.00
2023-08-18 19:14:22.645,,,,,,,,,,,,,,,,,,,,,,,,,,,,,,,,,,,,,,/muse/elements/jaw_clench
2023-08-18 19:14:22.814,,,,,,,,,,,,,,,,,,,,,,,,,,,,,,,,,,,,,,/muse/elements/blink
2023-08-18 19:14:22.814,,,,,,,,,,,,,,,,,,,,,,,,,,,,,,,,,,,,,,/muse/elements/jaw_clench
2023-08-18 19:14:23.615,1.4535826,-0.21964642,0.0,1.3914545,0.85443866,-0.27971956,0.0,0.7373585,0.9590008,-0.07707241,0.0,0.7973786,1.30973,-0.044433117,0.0,0.95207787,1.1373578,-0.30069757,0.0,0.2756135,576.5934,782.0879,814.7253,537.1062,589.89014,0.0076904296875,0.13616943359375,0.99127197265625,5.0543212890625,-5.78704833984375,1.577606201171875,1,4.0,1.0,2.0,2.0,40.00
2023-08-18 19:14:24.051,,,,,,,,,,,,,,,,,,,,,,,,,,,,,,,,,,,,,,/muse/elements/blink
2023-08-18 19:14:24.622,1.4535826,-0.18720132,0.0,1.3914545,0.85443866,-0.46120554,0.0,0.7373585,0.9590008,-0.1717651,0.0,0.7973786,1.30973,0.09213674,0.0,0.95207787,1.1373578,-0.32993427,0.0,0.2756135,1620.989,781.685,1214.4323,1621.392,1620.1831,-0.0218505859375,0.11126708984375,0.98858642578125,4.9346923828125,-1.039276123046875,4.59075927734375,1,4.0,1.0,2.0,2.0,40.00
2023-08-18 19:14:25.193,,,,,,,,,,,,,,,,,,,,,,,,,,,,,,,,,,,,,,/muse/elements/blink
2023-08-18 19:14:25.633,1.4535826,0.36041012,0.0,1.3914545,0.85443866,0.029720057,0.0,0.7373585,0.9590008,0.18857361,0.0,0.7973786,1.30973,0.09698907,0.0,0.95207787,1.1373578,-0.36265215,0.0,0.2756135,174.06593,777.25275,594.3223,798.20514,748.6447,-0.1397705078125,0.17291259765625,0.98614501953125,8.8824462890625,-1.57012939453125,0.157012939453125,1,4.0,1.0,2.0,4.0,40.00
2023-08-18 19:14:25.887,,,,,,,,,,,,,,,,,,,,,,,,,,,,,,,,,,,,,,/muse/elements/blink
2023-08-18 19:14:26.212,,,,,,,,,,,,,,,,,,,,,,,,,,,,,,,,,,,,,,/muse/elements/jaw_clench
2023-08-18 19:14:26.310,,,,,,,,,,,,,,,,,,,,,,,,,,,,,,,,,,,,,,/muse/elements/blink
2023-08-18 19:14:26.471,,,,,,,,,,,,,,,,,,,,,,,,,,,,,,,,,,,,,,/muse/elements/jaw_clench
2023-08-18 19:14:26.638,,,,,,,,,,,,,,,,,,,,,,,,,,,,,,,,,,,,,,/muse/elements/blink
2023-08-18 19:14:26.640,1.4535826,0.41756228,0.0,1.3914545,0.85443866,-0.0761682,0.0,0.7373585,0.9590008,0.22348791,0.0,0.7973786,1.30973,-0.076053604,0.0,0.95207787,1.1373578,-0.36565462,0.0,0.2756135,967.8388,772.4176,1087.9121,972.674,841.31866,-0.14068603515625,0.1068115234375,0.92022705078125,-2.27294921875,-0.82244873046875,0.83740234375,1,4.0,1.0,2.0,4.0,40.00
2023-08-18 19:14:27.641,1.4535826,-0.2936345,0.0,1.3914545,0.85443866,-0.15090115,0.0,0.7373585,0.9590008,-0.03956543,0.0,0.7973786,1.30973,-0.05604685,0.0,0.95207787,1.1373578,-0.29731175,0.0,0.2756135,662.01465,777.6557,816.7399,670.4762,660.0,-0.1820068359375,0.13995361328125,0.96746826171875,12.56103515625,-4.373931884765625,10.6768798828125,1,2.0,1.0,2.0,2.0,40.00
2023-08-18 19:14:27.940,,,,,,,,,,,,,,,,,,,,,,,,,,,,,,,,,,,,,,/muse/elements/blink
2023-08-18 19:14:28.235,,,,,,,,,,,,,,,,,,,,,,,,,,,,,,,,,,,,,,/muse/elements/jaw_clench
2023-08-18 19:14:28.316,,,,,,,,,,,,,,,,,,,,,,,,,,,,,,,,,,,,,,/muse/elements/blink
2023-08-18 19:14:28.566,,,,,,,,,,,,,,,,,,,,,,,,,,,,,,,,,,,,,,/muse/elements/blink
2023-08-18 19:14:28.646,1.4535826,0.5457359,0.0,1.3914545,0.85443866,0.20367414,0.0,0.7373585,0.9590008,-0.010629491,0.0,0.7973786,1.30973,-0.03441382,0.0,0.95207787,1.1373578,-0.22303133,0.0,0.2756135,906.99634,780.07324,850.18317,973.47986,764.7619,-0.047607421875,0.16064453125,0.8719482421875,-7.19268798828125,-4.254302978515625,-15.850830078125,1,4.0,1.0,2.0,4.0,40.00
2023-08-18 19:14:28.863,,,,,,,,,,,,,,,,,,,,,,,,,,,,,,,,,,,,,,/muse/elements/blink
2023-08-18 19:14:28.863,,,,,,,,,,,,,,,,,,,,,,,,,,,,,,,,,,,,,,/muse/elements/jaw_clench
2023-08-18 19:14:29.069,,,,,,,,,,,,,,,,,,,,,,,,,,,,,,,,,,,,,,/muse/elements/blink
2023-08-18 19:14:29.349,,,,,,,,,,,,,,,,,,,,,,,,,,,,,,,,,,,,,,/muse/elements/blink
2023-08-18 19:14:29.661,1.4535826,0.4061044,0.0,1.3914545,0.85443866,-0.27445605,0.0,0.7373585,0.9590008,-0.15006454,0.0,0.7973786,1.30973,0.032100525,0.0,0.95207787,1.1373578,-0.25946605,0.0,0.2756135,1053.663,780.4762,939.6337,967.03296,850.989,-0.1346435546875,0.20709228515625,0.9708251953125,5.734710693359375,-5.203857421875,-3.15521240234375,1,4.0,1.0,2.0,4.0,40.00
2023-08-18 19:14:29.861,,,,,,,,,,,,,,,,,,,,,,,,,,,,,,,,,,,,,,/muse/elements/blink
2023-08-18 19:14:30.384,,,,,,,,,,,,,,,,,,,,,,,,,,,,,,,,,,,,,,/muse/elements/blink
2023-08-18 19:14:30.662,1.4535826,0.2390543,0.0,1.3914545,0.85443866,0.021362726,0.0,0.7373585,0.9590008,0.18748422,0.0,0.7973786,1.30973,0.08596283,0.0,0.95207787,1.1373578,-0.2889013,0.0,0.2756135,693.44324,778.0586,882.01465,779.67035,713.1868,-0.10125732421875,0.17962646484375,0.976318359375,4.089813232421875,-4.209442138671875,-0.52337646484375,1,2.0,1.0,2.0,2.0,40.00
2023-08-18 19:14:31.665,1.4535826,0.04047423,0.0,1.3914545,0.85443866,0.22860634,0.0,0.7373585,0.9590008,0.15015125,0.0,0.7973786,1.30973,-0.012460898,0.0,0.95207787,1.1373578,-0.385786,0.0,0.2756135,1109.6703,778.0586,859.0476,992.01465,859.85345,-0.1051025390625,0.18414306640625,0.98138427734375,4.8150634765625,-3.48419189453125,-0.478515625,1,2.0,1.0,2.0,2.0,40.00
2023-08-18 19:14:31.687,,,,,,,,,,,,,,,,,,,,,,,,,,,,,,,,,,,,,,/muse/elements/blink
2023-08-18 19:14:32.668,1.4535826,0.4384236,0.0,1.3914545,0.85443866,0.2392282,0.0,0.7373585,0.9590008,0.0878188,0.0,0.7973786,1.30973,-0.16930473,0.0,0.95207787,1.1373578,-0.4118039,0.0,0.2756135,411.39194,778.0586,761.9414,661.2088,742.6007,-0.1326904296875,0.1806640625,0.9737548828125,5.241241455078125,-6.80389404296875,-0.25421142578125,1,2.0,1.0,2.0,2.0,40.00
2023-08-18 19:14:33.015,,,,,,,,,,,,,,,,,,,,,,,,,,,,,,,,,,,,,,/muse/elements/blink
2023-08-18 19:14:33.672,1.4535826,-0.30304956,0.0,1.1466193,0.85443866,-0.24911751,0.0,0.69238573,0.9590008,0.06760325,0.0,0.65202564,1.30973,-0.1269837,0.0,0.7023193,1.1373578,-0.4771374,0.0,0.16069643,528.6447,771.6117,870.32965,662.01465,753.47986,-0.0986328125,0.1705322265625,0.981689453125,5.061798095703125,-6.74407958984375,1.099090576171875,1,1.0,1.0,2.0,1.0,40.00
2023-08-18 19:14:34.317,,,,,,,,,,,,,,,,,,,,,,,,,,,,,,,,,,,,,,/muse/elements/blink
2023-08-18 19:14:34.681,1.4535826,-0.16573276,0.0,1.121563,0.85443866,-0.1274955,0.0,0.35739636,0.9590008,-0.091031946,0.0,0.8270476,1.30973,-0.097595945,0.0,0.5893175,1.1373578,-0.47367853,0.0,0.23126255,1119.3407,769.19415,777.25275,947.28937,960.18317,-0.095458984375,0.17401123046875,0.98602294921875,5.091705322265625,-5.465545654296875,0.55328369140625,1,1.0,1.0,2.0,1.0,40.00
2023-08-18 19:14:35.614,,,,,,,,,,,,,,,,,,,,,,,,,,,,,,,,,,,,,,/muse/elements/blink
2023-08-18 19:14:35.694,1.4535826,-0.1681523,0.0,0.89858514,0.85443866,-0.069242194,0.0,0.735452,0.9590008,-0.09087316,0.0,1.1326616,1.30973,0.0011351443,0.0,0.725985,1.1373578,-0.44301966,0.0,0.13125072,404.94507,773.22345,687.3993,631.39197,746.63007,-0.1082763671875,0.17767333984375,0.982666015625,5.2935791015625,-5.0244140625,1.4056396484375,1,1.0,1.0,2.0,1.0,40.00
2023-08-18 19:14:36.694,1.0947471,0.70052624,0.0,0.7196444,0.39964706,0.011857569,0.0,0.73885757,0.76065063,-0.105077654,0.0,1.1308116,0.9761902,0.050849825,0.0,0.8829541,0.6755042,-0.36591923,0.0,0.180165,732.1245,774.83514,892.8938,758.315,680.9524,-0.1025390625,0.18133544921875,0.9793701171875,5.151519775390625,-4.3365478515625,0.904693603515625,1,1.0,1.0,2.0,1.0,40.00
2023-08-18 19:14:36.847,,,,,,,,,,,,,,,,,,,,,,,,,,,,,,,,,,,,,,/muse/elements/blink
2023-08-18 19:14:37.701,1.0947471,0.79154897,0.0,0.21473263,0.39964706,0.105786756,0.0,0.65150917,0.76065063,0.022351347,0.0,1.0244755,0.9761902,0.02225423,0.0,0.7209275,0.6755042,-0.21433252,0.0,0.15495327,676.52014,771.2088,765.9707,755.89746,803.44324,-0.099853515625,0.17822265625,0.97869873046875,4.7552490234375,-5.1141357421875,0.43365478515625,1,1.0,1.0,2.0,1.0,40.00
2023-08-18 19:14:38.192,,,,,,,,,,,,,,,,,,,,,,,,,,,,,,,,,,,,,,/muse/elements/blink
2023-08-18 19:14:38.706,0.94318485,-0.40687138,0.0,0.63632774,0.5989107,-0.2914101,0.0,0.27043444,1.0354722,0.021549562,0.0,0.7561193,0.84845424,-0.024327975,0.0,0.6593859,0.8036783,-0.20605277,0.0,0.16251172,411.39194,774.0293,832.0513,644.2857,667.6557,-0.10003662109375,0.18585205078125,0.97698974609375,4.88983154296875,-5.181427001953125,0.85235595703125,1,1.0,1.0,2.0,1.0,40.00
2023-08-18 19:14:38.907,,,,,,,,,,,,,,,,,,,,,,,,,,,,,,,,,,,,,,/muse/elements/jaw_clench
2023-08-18 19:14:39.130,,,,,,,,,,,,,,,,,,,,,,,,,,,,,,,,,,,,,,/muse/elements/blink
2023-08-18 19:14:39.719,0.89154434,-0.39248645,0.0,0.12985915,0.7800315,-0.4099209,0.0,0.32166162,1.0303682,-0.03941939,0.0,0.6495899,0.93632853,-0.19384758,0.0,0.6832486,0.8527194,-0.304972,0.0,0.17955752,786.1172,776.04395,766.77655,806.26373,767.1795,-0.10357666015625,0.1920166015625,0.97637939453125,4.747772216796875,-4.605712890625,0.79254150390625,1,1.0,1.0,2.0,1.0,40.00
2023-08-18 19:14:40.129,,,,,,,,,,,,,,,,,,,,,,,,,,,,,,,,,,,,,,/muse/elements/blink
2023-08-18 19:14:40.732,0.6604898,-0.38174734,0.0,0.75906557,0.7744271,-0.29969808,0.0,0.4368188,0.92297673,0.021073028,0.0,0.8897727,0.90887517,-0.18165417,0.0,0.64111704,0.64157796,-0.3207965,0.0,0.16918917,920.293,772.01465,711.978,859.45056,873.5531,-0.11468505859375,0.1915283203125,0.97564697265625,4.65057373046875,-4.717864990234375,0.8673095703125,1,1.0,1.0,1.0,1.0,40.00
2023-08-18 19:14:41.351,,,,,,,,,,,,,,,,,,,,,,,,,,,,,,,,,,,,,,/muse/elements/blink
2023-08-18 19:14:41.744,0.7225286,-0.07604201,0.0,0.4447926,0.79070336,0.015826717,0.0,0.39988336,1.0126125,-0.030320011,0.0,0.9201021,0.76018155,0.010829854,0.0,0.6473465,0.66336155,-0.22247282,0.0,0.27209333,468.60806,782.0879,828.022,655.56775,627.76556,-0.1048583984375,0.19268798828125,0.9716796875,4.65057373046875,-5.9814453125,1.54022216796875,1,1.0,1.0,1.0,1.0,40.00
2023-08-18 19:14:42.642,,,,,,,,,,,,,,,,,,,,,,,,,,,,,,,,,,,,,,/muse/elements/blink
2023-08-18 19:14:42.757,0.7979423,-0.036821887,0.0,0.3958665,0.79721665,0.0113398805,0.0,0.46557596,0.9121031,-0.05530704,0.0,0.5629621,0.76425314,0.06311559,0.0,0.51185215,0.6582025,-0.12203795,0.0,0.34383267,658.7912,774.0293,724.4689,720.84247,714.7985,-0.10687255859375,0.1962890625,0.9793701171875,4.957122802734375,-4.897308349609375,0.007476806640625,1,1.0,1.0,1.0,1.0,40.00
2023-08-18 19:14:43.765,0.62046736,-0.19323677,0.0,0.6391474,0.504589,-0.03722902,0.0,0.4414736,0.7708733,-0.066455215,0.0,0.590455,0.7087556,0.07903388,0.0,0.5399876,0.58102727,-0.11893015,0.0,0.22776313,776.04395,784.10254,773.22345,789.7436,736.1539,-0.11419677734375,0.1939697265625,0.970947265625,4.42626953125,-4.62066650390625,0.6280517578125,1,1.0,1.0,1.0,1.0,40.00
2023-08-18 19:14:43.893,,,,,,,,,,,,,,,,,,,,,,,,,,,,,,,,,,,,,,/muse/elements/blink
2023-08-18 19:14:43.992,,,,,,,,,,,,,,,,,,,,,,,,,,,,,,,,,,,,,,/muse/elements/jaw_clench
2023-08-18 19:14:44.164,,,,,,,,,,,,,,,,,,,,,,,,,,,,,,,,,,,,,,/muse/elements/jaw_clench
2023-08-18 19:14:44.769,0.7069674,-0.10444657,0.0,1.0516524,0.5776229,-0.32759455,0.0,0.7258632,0.8099817,0.060249362,0.0,1.0277635,0.74453735,0.017202582,0.0,0.7177834,0.5340116,-0.2912687,0.0,0.45877326,517.3626,776.04395,839.707,679.7436,722.4542,-0.11444091796875,0.1959228515625,0.97747802734375,5.39825439453125,-4.83001708984375,0.478515625,1,1.0,1.0,1.0,1.0,40.00
2023-08-18 19:14:45.026,,,,,,,,,,,,,,,,,,,,,,,,,,,,,,,,,,,,,,/muse/elements/blink
2023-08-18 19:14:45.781,0.7413246,-0.18750398,0.0,1.4185667,0.5758776,-0.22355121,0.0,1.0218676,0.79382944,0.056277893,0.0,0.95755106,0.7558149,-0.043984964,0.0,0.59536856,0.45337728,-0.1922727,0.0,0.5787663,945.6777,785.31134,828.8278,859.85345,861.4652,-0.11468505859375,0.19598388671875,0.97259521484375,4.867401123046875,-5.084228515625,1.024322509765625,1,1.0,1.0,1.0,1.0,40.00
2023-08-18 19:14:46.312,,,,,,,,,,,,,,,,,,,,,,,,,,,,,,,,,,,,,,/muse/elements/blink
2023-08-18 19:14:46.782,0.643364,-0.1260831,0.0,0.16184999,0.652793,-0.20421265,0.0,0.36772862,0.7111866,-0.027872242,0.0,0.2827484,0.6429932,0.06790419,0.0,0.5287985,0.51072836,-0.21019664,0.0,0.21813904,818.3516,777.6557,766.77655,797.3993,795.38464,-0.121337890625,0.2010498046875,0.97564697265625,4.59075927734375,-4.97955322265625,1.039276123046875,1,1.0,1.0,1.0,1.0,40.00
2023-08-18 19:14:47.628,,,,,,,,,,,,,,,,,,,,,,,,,,,,,,,,,,,,,,/muse/elements/blink
2023-08-18 19:14:47.789,0.7736127,-0.08938832,0.0,0.2592128,0.58330125,-0.5055313,0.0,0.3353478,0.7418205,-5.049239E-4,0.0,0.5180799,0.754341,0.013780205,0.0,0.5159274,0.69658095,-0.22591873,0.0,0.3021907,1171.7216,774.0293,883.6264,957.3626,734.94507,-0.11865234375,0.20318603515625,0.97369384765625,4.77020263671875,-5.5029296875,1.57012939453125,1,1.0,1.0,1.0,1.0,40.00
2023-08-18 19:14:48.797,0.821971,-0.008538208,0.0,0.3391155,0.41482148,-0.18557136,0.0,0.24174196,0.5199738,0.042389467,0.0,0.50962764,0.8497556,0.07974443,0.0,0.52626044,0.838582,-0.09329108,0.0,0.38521314,757.9121,790.9524,346.92307,708.7546,758.71796,-0.10736083984375,0.185302734375,0.987060546875,2.444915771484375,-8.2244873046875,0.73272705078125,1,1.0,1.0,1.0,1.0,40.00
2023-08-18 19:14:48.859,,,,,,,,,,,,,,,,,,,,,,,,,,,,,,,,,,,,,,/muse/elements/blink
2023-08-18 19:14:49.806,0.821971,0.12852052,0.0,0.3391155,0.41482148,-0.2876875,0.0,0.24174196,0.5199738,-0.0042613666,0.0,0.50962764,0.8497556,-0.0068398905,0.0,0.52626044,0.838582,0.1236178,0.0,0.38521314,897.72894,774.83514,678.5348,867.9121,771.6117,-0.1455078125,0.22119140625,0.9593505859375,4.613189697265625,-1.62994384765625,1.502838134765625,1,1.0,1.0,1.0,1.0,40.00
2023-08-18 19:14:50.158,,,,,,,,,,,,,,,,,,,,,,,,,,,,,,,,,,,,,,/muse/elements/blink
2023-08-18 19:14:50.809,0.821971,0.11597319,0.0,0.3391155,0.41482148,-0.23087992,0.0,0.24174196,0.5199738,-0.058465946,0.0,0.50962764,0.8497556,0.029129213,0.0,0.52626044,0.838582,-0.010853711,0.0,0.38521314,1042.381,771.2088,947.28937,841.7216,741.39197,-0.196044921875,0.22161865234375,0.958251953125,4.11224365234375,-4.643096923828125,-0.5084228515625,1,2.0,1.0,1.0,2.0,40.00
2023-08-18 19:14:50.898,,,,,,,,,,,,,,,,,,,,,,,,,,,,,,,,,,,,,,/muse/elements/blink
2023-08-18 19:14:51.007,,,,,,,,,,,,,,,,,,,,,,,,,,,,,,,,,,,,,,/muse/elements/jaw_clench
2023-08-18 19:14:51.467,,,,,,,,,,,,,,,,,,,,,,,,,,,,,,,,,,,,,,/muse/elements/blink
2023-08-18 19:14:51.811,0.821971,-0.2680456,0.0,0.3391155,0.41482148,0.22672854,0.0,0.24174196,0.5199738,0.3525724,0.0,0.50962764,0.8497556,0.1153602,0.0,0.52626044,0.838582,-0.26084825,0.0,0.38521314,474.24908,782.8938,809.0842,775.2381,789.34064,-0.20904541015625,0.19805908203125,0.9559326171875,3.69354248046875,-2.400054931640625,-0.35888671875,1,2.0,1.0,1.0,2.0,40.00
2023-08-18 19:14:52.423,,,,,,,,,,,,,,,,,,,,,,,,,,,,,,,,,,,,,,/muse/elements/jaw_clench
2023-08-18 19:14:52.621,,,,,,,,,,,,,,,,,,,,,,,,,,,,,,,,,,,,,,/muse/elements/blink
2023-08-18 19:14:52.817,0.821971,-0.25850096,0.0,0.3391155,0.41482148,0.23395477,0.0,0.24174196,0.5199738,0.35175666,0.0,0.50962764,0.8497556,0.027198652,0.0,0.52626044,0.838582,-0.36192995,0.0,0.38521314,1126.9963,782.0879,935.2015,878.7912,755.89746,-0.193359375,0.1822509765625,0.95947265625,5.091705322265625,-5.15899658203125,0.76263427734375,1,2.0,1.0,1.0,2.0,40.00
2023-08-18 19:14:53.048,,,,,,,,,,,,,,,,,,,,,,,,,,,,,,,,,,,,,,/muse/elements/jaw_clench
2023-08-18 19:14:53.544,,,,,,,,,,,,,,,,,,,,,,,,,,,,,,,,,,,,,,/muse/elements/blink
2023-08-18 19:14:53.721,,,,,,,,,,,,,,,,,,,,,,,,,,,,,,,,,,,,,,/muse/elements/blink
2023-08-18 19:14:53.828,0.821971,-0.10709817,0.0,0.3391155,0.41482148,-0.15194291,0.0,0.24174196,0.5199738,-0.052949924,0.0,0.50962764,0.8497556,-0.019790262,0.0,0.52626044,0.838582,-0.3399415,0.0,0.38521314,883.22345,778.86444,804.65204,823.9927,753.8828,-0.205322265625,0.1695556640625,0.9595947265625,3.7982177734375,-5.921630859375,-0.680389404296875,1,2.0,1.0,1.0,2.0,40.00
2023-08-18 19:14:54.853,0.821971,-0.32662714,0.0,0.3391155,0.41482148,-0.24398473,0.0,0.24174196,0.5199738,0.23751365,0.0,0.50962764,0.8497556,-0.026253384,0.0,0.52626044,0.838582,-0.2421241,0.0,0.38521314,1062.5275,783.69965,850.18317,842.9304,735.7509,-0.19500732421875,0.17755126953125,0.9632568359375,4.762725830078125,-5.944061279296875,1.12152099609375,1,2.0,1.0,1.0,2.0,40.00
2023-08-18 19:14:54.857,,,,,,,,,,,,,,,,,,,,,,,,,,,,,,,,,,,,,,/muse/elements/blink
2023-08-18 19:14:55.856,0.821971,-0.15483233,0.0,0.3391155,0.41482148,0.12229158,0.0,0.24174196,0.5199738,0.4315821,0.0,0.50962764,0.8497556,0.08430659,0.0,0.52626044,0.838582,-0.34920266,0.0,0.38521314,454.90842,774.83514,780.87915,674.5055,730.9158,-0.17742919921875,0.1820068359375,0.9659423828125,4.194488525390625,-5.90667724609375,-0.10467529296875,1,2.0,1.0,1.0,2.0,40.00
2023-08-18 19:14:56.086,,,,,,,,,,,,,,,,,,,,,,,,,,,,,,,,,,,,,,/muse/elements/blink
2023-08-18 19:14:56.858,0.90457773,-0.06594966,0.0,0.7676855,0.8786465,-0.007546232,0.0,0.38917807,0.9275468,0.15150581,0.0,0.2041646,0.70352757,0.024203781,0.0,0.45472178,0.5431496,-0.2805588,0.0,0.077124104,885.2381,776.8498,864.68866,823.5897,813.5165,-0.1695556640625,0.18634033203125,0.97100830078125,4.5458984375,-5.0543212890625,0.485992431640625,1,1.0,1.0,1.0,1.0,40.00
2023-08-18 19:14:57.384,,,,,,,,,,,,,,,,,,,,,,,,,,,,,,,,,,,,,,/muse/elements/blink
2023-08-18 19:14:57.867,0.9022816,0.3313165,0.0,0.54300755,0.7660135,-0.14855453,0.0,0.30059555,0.823668,-0.09354639,0.0,0.27094436,0.7271016,-9.5652527E-4,0.0,0.44327492,0.61671245,-0.22050655,0.0,0.20721762,1137.0696,766.3736,655.9707,1621.392,1245.4579,0.20001220703125,0.1270751953125,0.650390625,3.536529541015625,-14.557342529296875,5.45806884765625,1,1.0,1.0,1.0,1.0,40.00
2023-08-18 19:14:58.504,,,,,,,,,,,,,,,,,,,,,,,,,,,,,,,,,,,,,,/muse/elements/blink
2023-08-18 19:14:58.878,0.94591695,0.8192384,0.0,0.41924283,0.81198466,0.03464406,0.0,0.36807853,0.77411413,0.16794583,0.0,0.20530494,0.7803443,0.28122786,0.0,0.45672423,0.6880935,-0.3191403,0.0,0.28639868,285.27472,769.59705,851.79486,110.40293,476.26373,-0.2491455078125,0.15643310546875,0.9638671875,4.127197265625,11.12548828125,-3.476715087890625,1,4.0,1.0,1.0,4.0,40.00
2023-08-18 19:14:58.928,,,,,,,,,,,,,,,,,,,,,,,,,,,,,,,,,,,,,,/muse/elements/blink
2023-08-18 19:14:59.886,0.94591695,0.29364148,0.0,0.41924283,0.81198466,0.19245371,0.0,0.36807853,0.77411413,0.3467336,0.0,0.20530494,0.7803443,0.12679511,0.0,0.45672423,0.6880935,-0.23478054,0.0,0.28639868,1109.6703,774.43225,884.83514,948.0952,853.4066,-0.13677978515625,0.193603515625,0.96978759765625,6.69921875,-2.8411865234375,0.9271240234375,1,2.0,1.0,1.0,2.0,40.00
2023-08-18 19:14:59.914,,,,,,,,,,,,,,,,,,,,,,,,,,,,,,,,,,,,,,/muse/elements/blink
2023-08-18 19:15:00.898,0.94591695,0.021600705,0.0,0.41924283,0.81198466,0.16267154,0.0,0.36807853,0.77411413,0.39013907,0.0,0.20530494,0.7803443,0.009265115,0.0,0.45672423,0.6880935,-0.2809463,0.0,0.28639868,570.14655,777.6557,691.8315,660.80585,921.9048,-0.12353515625,0.17010498046875,0.96893310546875,6.168365478515625,-6.9384765625,-0.261688232421875,1,2.0,1.0,1.0,2.0,40.00
2023-08-18 19:15:01.237,,,,,,,,,,,,,,,,,,,,,,,,,,,,,,,,,,,,,,/muse/elements/blink
2023-08-18 19:15:01.903,0.94591695,-0.12528281,0.0,0.41924283,0.81198466,-0.18550918,0.0,0.36807853,0.77411413,0.20303315,0.0,0.20530494,0.7803443,-0.15639701,0.0,0.45672423,0.6880935,-0.31131995,0.0,0.28639868,1050.8425,777.25275,850.58606,880.80585,720.4396,-0.1317138671875,0.18408203125,0.97265625,3.730926513671875,-5.211334228515625,-0.5682373046875,1,2.0,1.0,1.0,2.0,40.00
2023-08-18 19:15:02.598,,,,,,,,,,,,,,,,,,,,,,,,,,,,,,,,,,,,,,/muse/elements/blink
2023-08-18 19:15:02.910,0.94591695,0.098901816,0.0,0.41924283,0.81198466,-0.30195397,0.0,0.36807853,0.77411413,0.15430266,0.0,0.20530494,0.7803443,-0.23906422,0.0,0.45672423,0.6880935,-0.2833328,0.0,0.28639868,926.7399,779.67035,877.1795,786.1172,716.8132,-0.12841796875,0.1822509765625,0.97265625,5.256195068359375,-5.316009521484375,1.308441162109375,1,2.0,1.0,1.0,2.0,40.00
2023-08-18 19:15:03.923,1.2586145,-0.18146212,0.0,1.0170586,1.1811378,-0.38485315,0.0,0.66249555,0.83910763,-0.10483764,0.0,0.58854353,0.8699771,-0.20325452,0.0,0.49455938,0.47785762,-0.21614856,0.0,0.005554359,475.4579,775.64105,639.85345,633.00366,850.989,-0.13323974609375,0.17816162109375,0.97369384765625,5.323486328125,-5.4730224609375,1.368255615234375,1,1.0,1.0,1.0,1.0,40.00
2023-08-18 19:15:03.926,,,,,,,,,,,,,,,,,,,,,,,,,,,,,,,,,,,,,,/muse/elements/blink
2023-08-18 19:15:04.924,1.1775329,-0.31200364,0.0,0.7666848,0.41914967,-0.3250008,0.0,0.75415176,0.72142965,-0.005269107,0.0,0.7776638,0.85987914,-0.08324699,0.0,0.41719738,0.5055248,-0.2688073,0.0,0.084543414,1097.1794,779.2674,860.2564,923.91943,819.15753,-0.1356201171875,0.1881103515625,0.971923828125,3.895416259765625,-5.90667724609375,0.8074951171875,1,1.0,1.0,1.0,1.0,40.00
2023-08-18 19:15:05.132,,,,,,,,,,,,,,,,,,,,,,,,,,,,,,,,,,,,,,/muse/elements/blink
2023-08-18 19:15:05.933,1.2098517,-0.092567585,0.0,0.59149736,0.7109302,-0.143982,0.0,0.657485,0.68197626,0.044336997,0.0,0.87441224,0.8294449,-0.2652286,0.0,0.46968818,0.42564803,-0.39705446,0.0,0.1161593,547.98535,773.6264,863.47986,674.5055,674.90845,-0.1328125,0.190673828125,0.97503662109375,5.330963134765625,-4.777679443359375,1.435546875,1,1.0,1.0,1.0,1.0,40.00
2023-08-18 19:15:06.355,,,,,,,,,,,,,,,,,,,,,,,,,,,,,,,,,,,,,,/muse/elements/blink
2023-08-18 19:15:06.943,1.2378858,0.092441685,0.0,0.5539666,0.9517582,-0.13012373,0.0,0.5077301,0.9383494,0.14171143,0.0,0.738402,0.8466292,-0.17614296,0.0,0.4827589,0.43571678,-0.4292711,0.0,0.011251286,958.97437,782.49084,807.0696,882.01465,805.8608,-0.14337158203125,0.19451904296875,0.97332763671875,5.316009521484375,-4.964599609375,0.530853271484375,1,1.0,1.0,1.0,1.0,40.00
2023-08-18 19:15:07.636,,,,,,,,,,,,,,,,,,,,,,,,,,,,,,,,,,,,,,/muse/elements/blink
2023-08-18 19:15:07.947,1.4783183,0.162729,0.0,0.20900506,0.90667105,-0.009249759,0.0,0.38567433,1.1511071,0.24803492,0.0,0.7402377,0.8205543,-0.017143916,0.0,0.49152005,0.3089215,-0.49917153,0.0,-0.016342498,1101.6117,776.04395,866.30035,944.87177,727.6923,-0.16033935546875,0.19134521484375,0.968994140625,4.658050537109375,-5.181427001953125,0.530853271484375,1,1.0,1.0,1.0,1.0,40.00
2023-08-18 19:15:08.887,,,,,,,,,,,,,,,,,,,,,,,,,,,,,,,,,,,,,,/muse/elements/blink
2023-08-18 19:15:08.953,1.2366525,-0.24241833,0.0,0.4677348,0.83276415,-0.12082287,0.0,0.36850765,1.005743,0.23580492,0.0,0.719328,0.91047984,0.11123149,0.0,0.73686886,0.5818436,-0.48249972,0.0,-0.03129972,589.0842,772.4176,806.6667,699.0842,605.2015,-0.16802978515625,0.1839599609375,0.97283935546875,5.0244140625,-4.284210205078125,-0.0299072265625,1,1.0,1.0,1.0,1.0,40.00
2023-08-18 19:15:09.973,1.2488823,-0.5599428,0.0,0.91868085,0.945646,-0.20838915,0.0,0.5825842,1.117123,0.36540368,0.0,1.012554,0.81112915,-0.020163493,0.0,0.61542976,0.51730293,-0.4864238,0.0,0.13692437,984.35895,773.6264,834.4689,866.7033,827.619,-0.16314697265625,0.1884765625,0.96337890625,5.09918212890625,-5.241241455078125,0.85235595703125,1,1.0,1.0,1.0,1.0,40.00
2023-08-18 19:15:10.206,,,,,,,,,,,,,,,,,,,,,,,,,,,,,,,,,,,,,,/muse/elements/blink
2023-08-18 19:15:10.985,1.2248819,-0.34072146,0.0,0.7539409,0.8262241,-0.29392186,0.0,0.5169505,0.9952555,0.27665663,0.0,0.9851036,0.8814956,-0.09696434,0.0,0.580194,0.39218116,-0.37233126,0.0,0.1387699,500.8425,779.67035,784.90845,664.83514,660.40295,-0.16534423828125,0.189453125,0.9664306640625,5.046844482421875,-4.553375244140625,0.919647216796875,1,1.0,1.0,1.0,1.0,40.00
2023-08-18 19:15:11.500,,,,,,,,,,,,,,,,,,,,,,,,,,,,,,,,,,,,,,/muse/elements/blink
2023-08-18 19:15:11.986,0.9953099,-0.4681071,0.0,0.48999342,0.7304524,-0.36647493,0.0,0.33893105,0.6717904,0.10472385,0.0,0.959813,0.8095136,-0.020530658,0.0,0.6902962,0.36140344,-0.23456103,0.0,0.13949648,1097.9854,776.4469,868.71796,911.8315,810.696,-0.16094970703125,0.19427490234375,0.96783447265625,5.226287841796875,-5.21881103515625,0.82244873046875,1,1.0,1.0,1.0,1.0,40.00
2023-08-18 19:15:12.730,,,,,,,,,,,,,,,,,,,,,,,,,,,,,,,,,,,,,,/muse/elements/blink
2023-08-18 19:15:12.992,0.7719192,-0.58318573,0.0,0.683813,0.8759814,-0.44877616,0.0,0.22042592,0.75170135,0.021402769,0.0,0.5587423,0.759109,-0.09837865,0.0,0.43849087,0.5473825,-0.32537544,0.0,0.1756598,508.49817,771.2088,790.9524,666.04395,603.1868,-0.1580810546875,0.196533203125,0.96746826171875,4.65057373046875,-5.016937255859375,0.097198486328125,1,1.0,1.0,1.0,1.0,40.00
2023-08-18 19:15:14.007,1.0451884,-0.49637994,0.0,0.726353,0.7158518,-0.45957768,0.0,0.344518,0.9788144,0.01821688,0.0,0.94514084,0.6708273,-0.18648013,0.0,0.5082925,0.6207738,-0.32738304,0.0,0.08143301,905.78754,780.87915,785.31134,863.0769,907.3993,-0.16009521484375,0.192138671875,0.9678955078125,4.702911376953125,-3.446807861328125,0.904693603515625,1,1.0,1.0,1.0,1.0,40.00
2023-08-18 19:15:14.046,,,,,,,,,,,,,,,,,,,,,,,,,,,,,,,,,,,,,,/muse/elements/blink
2023-08-18 19:15:15.028,1.1731092,-0.10680295,0.0,1.0872709,0.70247424,0.11301675,0.0,0.5703985,0.9821641,0.01954929,0.0,0.9440183,0.6466392,-0.18011923,0.0,0.52759206,0.40563318,-0.4002132,0.0,-0.030133966,1112.8938,773.6264,915.8608,942.4542,766.3736,-0.18304443359375,0.186767578125,0.9578857421875,5.106658935546875,-3.745880126953125,-0.814971923828125,1,1.0,1.0,1.0,1.0,40.00
2023-08-18 19:15:15.390,,,,,,,,,,,,,,,,,,,,,,,,,,,,,,,,,,,,,,/muse/elements/blink
2023-08-18 19:15:16.030,1.0687587,-0.11930385,0.0,0.48926538,0.47901884,0.04225928,0.0,0.18034098,0.56911427,0.19228087,0.0,0.64404887,0.6076951,-0.11165162,0.0,0.43672815,0.4198536,-0.37895793,0.0,-0.0646762,534.68866,783.2967,805.8608,680.9524,641.4652,-0.18023681640625,0.1866455078125,0.96234130859375,4.56085205078125,-5.33843994140625,0.605621337890625,1,1.0,1.0,1.0,1.0,40.00
2023-08-18 19:15:16.604,,,,,,,,,,,,,,,,,,,,,,,,,,,,,,,,,,,,,,/muse/elements/blink
2023-08-18 19:15:17.037,1.1254991,-0.22363314,0.0,0.689773,1.0278741,-0.18244988,0.0,0.42649344,1.030741,0.011187151,0.0,0.86357903,0.7556181,-9.804792E-4,0.0,0.56113136,0.5695616,-0.35546365,0.0,-0.031830236,927.1429,780.07324,801.02563,863.0769,834.0659,-0.17425537109375,0.1959228515625,0.96636962890625,5.166473388671875,-5.54779052734375,1.136474609375,1,1.0,1.0,1.0,1.0,40.00
2023-08-18 19:15:17.921,,,,,,,,,,,,,,,,,,,,,,,,,,,,,,,,,,,,,,/muse/elements/blink
2023-08-18 19:15:18.048,1.2666078,-0.12867673,0.0,0.507719,1.1744004,-0.028699603,0.0,0.6369041,1.0412691,0.21446995,0.0,0.81646675,0.75668406,0.075255446,0.0,0.44258034,0.51482576,-0.44300863,0.0,0.015439399,545.56775,778.0586,864.2857,680.9524,697.0696,-0.1671142578125,0.19464111328125,0.96142578125,5.301055908203125,-5.959014892578125,0.79254150390625,1,1.0,1.0,1.0,1.0,40.00
2023-08-18 19:15:19.051,1.2933267,-0.3410955,0.0,0.63070625,1.1420457,0.017987698,0.0,0.49433064,0.88725007,0.19281729,0.0,0.557074,0.80831575,-0.017774446,0.0,0.5326329,0.41784444,-0.38400638,0.0,0.048129532,1075.4213,774.0293,882.8205,929.5604,739.7802,-0.16668701171875,0.1971435546875,0.9659423828125,4.83001708984375,-4.373931884765625,1.06170654296875,1,1.0,1.0,1.0,1.0,40.00
2023-08-18 19:15:19.226,,,,,,,,,,,,,,,,,,,,,,,,,,,,,,,,,,,,,,/muse/elements/blink
2023-08-18 19:15:20.058,1.2999758,-0.48251763,0.0,0.872688,0.6282613,-0.21684301,0.0,0.4686476,1.0687058,0.069066204,0.0,0.5015739,0.8410078,-0.14496285,0.0,0.51427764,0.24848947,-0.33992177,0.0,0.09771573,510.91574,782.49084,701.9048,734.94507,998.46155,-0.22808837890625,0.15716552734375,0.95745849609375,3.745880126953125,0.351409912109375,-2.49725341796875,1,1.0,1.0,1.0,1.0,40.00
2023-08-18 19:15:20.432,,,,,,,,,,,,,,,,,,,,,,,,,,,,,,,,,,,,,,/muse/elements/blink
2023-08-18 19:15:21.063,1.3295467,-0.11056855,0.0,0.92752755,0.65948665,-0.11433725,0.0,0.44647405,1.0687058,0.2603895,0.0,0.3417557,0.85247207,-0.15174961,0.0,0.36596093,0.20900124,-0.3725464,0.0,0.07064112,518.1685,777.25275,850.989,658.7912,734.5421,-0.2635498046875,0.1513671875,0.9527587890625,5.03936767578125,-6.332855224609375,1.8243408203125,1,1.0,1.0,1.0,1.0,40.00
2023-08-18 19:15:21.771,,,,,,,,,,,,,,,,,,,,,,,,,,,,,,,,,,,,,,/muse/elements/blink
2023-08-18 19:15:22.077,1.3295467,-0.14483109,0.0,0.92752755,0.65948665,-0.063792504,0.0,0.44647405,1.0687058,0.23507197,0.0,0.3417557,0.85247207,-0.08597584,0.0,0.36596093,0.20900124,-0.5198381,0.0,0.07064112,949.707,786.52014,914.65204,782.0879,805.8608,-0.25299072265625,0.15374755859375,0.9459228515625,4.568328857421875,-4.613189697265625,0.59814453125,1,1.0,1.0,1.0,1.0,40.00
2023-08-18 19:15:22.272,,,,,,,,,,,,,,,,,,,,,,,,,,,,,,,,,,,,,,/muse/elements/blink
2023-08-18 19:15:23.099,1.3295467,0.0615075,0.0,0.92752755,0.65948665,0.065947555,0.0,0.44647405,1.0687058,-0.051499,0.0,0.3417557,0.85247207,-0.2158249,0.0,0.36596093,0.20900124,-0.55090004,0.0,0.07064112,869.92676,775.2381,787.72894,803.0403,850.18317,-0.26239013671875,0.15228271484375,0.95068359375,4.493560791015625,-6.901092529296875,1.368255615234375,1,2.0,1.0,1.0,2.0,40.00
2023-08-18 19:15:23.103,,,,,,,,,,,,,,,,,,,,,,,,,,,,,,,,,,,,,,/muse/elements/blink
2023-08-18 19:15:24.110,1.3295467,0.285198,0.0,0.92752755,0.65948665,0.018079875,0.0,0.44647405,1.0687058,0.055650998,0.0,0.3417557,0.85247207,-0.047896218,0.0,0.36596093,0.20900124,-0.18793997,0.0,0.07064112,975.89746,778.86444,823.1868,855.42126,904.17584,-0.2286376953125,0.1624755859375,0.96405029296875,5.99639892578125,-5.824432373046875,0.538330078125,1,2.0,1.0,1.0,2.0,40.00
2023-08-18 19:15:24.380,,,,,,,,,,,,,,,,,,,,,,,,,,,,,,,,,,,,,,/muse/elements/blink
2023-08-18 19:15:25.117,1.3295467,0.23792103,0.0,0.92752755,0.65948665,0.012839693,0.0,0.44647405,1.0687058,0.06156698,0.0,0.3417557,0.85247207,-0.11927642,0.0,0.36596093,0.20900124,-0.18290281,0.0,0.07064112,609.2308,781.28204,872.3443,696.6667,795.78754,-0.21148681640625,0.1640625,0.96588134765625,4.8748779296875,-6.646881103515625,2.04864501953125,1,2.0,1.0,1.0,2.0,40.00
2023-08-18 19:15:25.605,,,,,,,,,,,,,,,,,,,,,,,,,,,,,,,,,,,,,,/muse/elements/blink
2023-08-18 19:15:26.123,1.3295467,0.23044771,0.0,0.92752755,0.65948665,-0.072004475,0.0,0.44647405,1.0687058,0.026956145,0.0,0.3417557,0.85247207,-0.13654806,0.0,0.36596093,0.20900124,-0.3979376,0.0,0.07064112,496.41025,781.685,759.5238,605.2015,893.69965,-0.17596435546875,0.1611328125,0.95672607421875,5.570220947265625,1.8243408203125,-0.5682373046875,1,2.0,1.0,1.0,2.0,40.00
2023-08-18 19:15:26.825,,,,,,,,,,,,,,,,,,,,,,,,,,,,,,,,,,,,,,/muse/elements/blink
2023-08-18 19:15:27.134,1.3295467,0.15723696,0.0,0.92752755,0.65948665,0.017117364,0.0,0.44647405,1.0687058,0.011788369,0.0,0.3417557,0.85247207,0.2773431,0.0,0.36596093,0.20900124,-0.33550742,0.0,0.07064112,972.674,778.86444,805.05493,822.381,881.2088,-0.2628173828125,0.17919921875,0.9324951171875,4.927215576171875,0.73272705078125,1.487884521484375,1,2.0,1.0,1.0,2.0,40.00
2023-08-18 19:15:28.136,1.3295467,0.3240996,0.0,0.92752755,0.65948665,-0.019062944,0.0,0.44647405,1.0687058,0.31534806,0.0,0.3417557,0.85247207,0.31876582,0.0,0.36596093,0.20900124,-0.15529968,0.0,0.07064112,591.50183,774.43225,828.8278,834.87177,853.4066,-0.22479248046875,0.1688232421875,0.96331787109375,2.489776611328125,-9.547882080078125,-5.45806884765625,1,2.0,1.0,1.0,2.0,40.00
2023-08-18 19:15:28.187,,,,,,,,,,,,,,,,,,,,,,,,,,,,,,,,,,,,,,/muse/elements/blink
2023-08-18 19:15:29.146,1.3295467,0.30303293,0.0,0.92752755,0.65948665,-0.07649644,0.0,0.44647405,1.0687058,0.16457112,0.0,0.3417557,0.85247207,0.06619758,0.0,0.36596093,0.20900124,-0.2891089,0.0,0.07064112,1069.3773,778.46155,838.0952,975.09155,840.9158,-0.1865234375,0.16845703125,0.9681396484375,4.0673828125,-5.5926513671875,0.4486083984375,1,2.0,1.0,1.0,2.0,40.00
2023-08-18 19:15:29.535,,,,,,,,,,,,,,,,,,,,,,,,,,,,,,,,,,,,,,/muse/elements/blink
2023-08-18 19:15:30.160,1.3295467,0.11522713,0.0,0.92752755,0.65948665,-0.22071147,0.0,0.44647405,1.0687058,0.073737286,0.0,0.3417557,0.85247207,-0.12217517,0.0,0.36596093,0.20900124,-0.6607682,0.0,0.07064112,897.326,775.2381,799.81683,830.84247,871.13556,-0.18359375,0.17376708984375,0.97406005859375,5.809478759765625,-6.041259765625,0.6878662109375,1,2.0,1.0,1.0,2.0,40.00
2023-08-18 19:15:30.819,,,,,,,,,,,,,,,,,,,,,,,,,,,,,,,,,,,,,,/muse/elements/blink
2023-08-18 19:15:31.168,1.1054268,0.077626795,0.0,1.1463739,1.0473065,-0.19314757,0.0,0.47867075,0.919634,0.1209641,0.0,0.54549,0.77975804,-0.22068499,0.0,0.5668027,0.23114999,-0.47945425,0.0,0.1259918,806.26373,770.80585,838.49817,777.6557,707.5458,-0.16632080078125,0.15521240234375,0.97625732421875,4.1571044921875,-6.69921875,1.03179931640625,1,1.0,1.0,4.0,1.0,40.00
2023-08-18 19:15:32.017,,,,,,,,,,,,,,,,,,,,,,,,,,,,,,,,,,,,,,/muse/elements/blink
2023-08-18 19:15:32.180,1.5229242,-0.05159628,0.0,1.2395382,0.9979437,-0.32995093,0.0,0.6278132,1.1029485,-0.020183986,0.0,0.89102584,0.9622966,-0.15258195,0.0,0.6391298,0.33009988,-0.30909717,0.0,0.093538545,645.09155,776.04395,705.5311,749.45056,1023.0403,-0.15679931640625,0.168701171875,0.98187255859375,5.6524658203125,-4.942169189453125,1.27105712890625,1,1.0,1.0,1.0,1.0,40.00
2023-08-18 19:15:33.188,1.2440456,0.1106354,0.0,0.9712158,1.0366775,-0.25418958,0.0,0.68985236,0.9697518,-0.1741542,0.0,0.9167638,0.8145079,-0.1476177,0.0,0.52243704,0.5361925,-0.323818,0.0,0.17128576,1094.359,776.8498,777.6557,940.0366,876.3736,-0.20269775390625,0.18603515625,0.95843505859375,4.8748779296875,0.897216796875,0.01495361328125,1,1.0,1.0,1.0,1.0,40.00
2023-08-18 19:15:33.348,,,,,,,,,,,,,,,,,,,,,,,,,,,,,,,,,,,,,,/muse/elements/blink
2023-08-18 19:15:34.203,0.824979,0.05407655,0.0,0.855666,1.00277,-0.27990136,0.0,0.6649203,0.9001253,0.31102386,0.0,0.841288,0.7138208,-0.028363276,0.0,0.44490933,0.61149347,-0.32816663,0.0,0.13199264,1003.69965,780.87915,848.97437,919.4872,805.05493,-0.23260498046875,0.1728515625,0.9581298828125,5.38330078125,-9.338531494140625,2.07855224609375,1,1.0,1.0,1.0,1.0,40.00
2023-08-18 19:15:34.582,,,,,,,,,,,,,,,,,,,,,,,,,,,,,,,,,,,,,,/muse/elements/blink
2023-08-18 19:15:35.210,1.4403555,0.014050023,0.0,1.0639434,0.51158124,-0.26711828,0.0,0.68178105,0.8818189,0.24071677,0.0,0.98148197,0.8589278,0.043697514,0.0,0.5286316,0.4042769,-0.18871565,0.0,0.24183793,763.1502,785.31134,846.55676,767.5824,740.58606,-0.2010498046875,0.17572021484375,0.9686279296875,5.21881103515625,-6.736602783203125,-0.7177734375,1,1.0,1.0,1.0,1.0,40.00
2023-08-18 19:15:35.854,,,,,,,,,,,,,,,,,,,,,,,,,,,,,,,,,,,,,,/muse/elements/blink
2023-08-18 19:15:36.222,1.2351521,-0.23566614,0.0,1.2288799,0.34629473,-0.20786656,0.0,0.4676153,0.89786583,-0.04013882,0.0,0.91104114,0.80874604,-0.07256167,0.0,0.400524,0.37965697,-0.2886332,0.0,0.11538562,1084.2858,780.07324,800.6227,941.6484,841.7216,-0.17901611328125,0.1619873046875,0.96685791015625,4.44122314453125,-5.62255859375,1.697235107421875,1,1.0,1.0,1.0,1.0,40.00
2023-08-18 19:15:37.110,,,,,,,,,,,,,,,,,,,,,,,,,,,,,,,,,,,,,,/muse/elements/blink
2023-08-18 19:15:37.231,0.8328509,-0.18183573,0.0,1.1503866,0.076154076,-0.18381046,0.0,0.3289044,0.76590866,0.058075815,0.0,0.26846975,0.751999,-0.07356782,0.0,0.260356,0.35355702,-0.40571743,0.0,-0.12819308,876.3736,781.685,858.24176,819.5604,770.40295,-0.15411376953125,0.1767578125,0.97314453125,4.852447509765625,-5.689849853515625,0.70281982421875,1,1.0,1.0,1.0,1.0,40.00
2023-08-18 19:15:38.244,1.2320081,-0.23346291,0.0,1.0154545,0.6801981,-0.5188635,0.0,0.42625374,0.7046901,0.12203394,0.0,0.37023893,0.6309789,-0.076918766,0.0,0.5117326,0.23258579,-0.3847195,0.0,-0.1621675,869.5238,780.07324,819.15753,747.03296,753.0769,-0.15667724609375,0.1932373046875,0.97430419921875,4.702911376953125,-5.151519775390625,1.92901611328125,1,1.0,1.0,1.0,1.0,40.00
2023-08-18 19:15:38.390,,,,,,,,,,,,,,,,,,,,,,,,,,,,,,,,,,,,,,/muse/elements/blink
2023-08-18 19:15:39.248,1.3191218,-0.32531056,0.0,1.1010143,0.669819,-0.44668505,0.0,0.8274871,0.9133451,0.25346783,0.0,0.7426678,0.8418979,-0.050395265,0.0,0.4632323,0.46749794,-0.3093835,0.0,-0.028531855,580.2198,774.43225,788.1319,696.26373,708.3516,-0.13232421875,0.1861572265625,0.9710693359375,4.56085205078125,-6.02630615234375,1.727142333984375,1,1.0,1.0,1.0,1.0,40.00
2023-08-18 19:15:39.755,,,,,,,,,,,,,,,,,,,,,,,,,,,,,,,,,,,,,,/muse/elements/blink
2023-08-18 19:15:40.263,1.2649286,0.112854056,0.0,1.2512126,0.7781522,0.038326964,0.0,1.0181601,0.86047965,0.36966693,0.0,0.6800979,1.0041655,-0.07874605,0.0,0.45025083,0.67873406,-0.17455271,0.0,-0.06982454,591.50183,774.0293,803.8461,724.87177,674.5055,-0.13531494140625,0.175537109375,0.9815673828125,4.5159912109375,-5.84686279296875,-0.201873779296875,1,1.0,1.0,1.0,1.0,40.00
2023-08-18 19:15:40.857,,,,,,,,,,,,,,,,,,,,,,,,,,,,,,,,,,,,,,/muse/elements/blink
2023-08-18 19:15:41.272,1.2649286,-0.09974346,0.0,0.8064446,0.7781522,-0.36952114,0.0,0.750963,0.86047965,0.15091662,0.0,0.7524104,1.0041655,0.036146943,0.0,0.62839127,0.67873406,-0.27857754,0.0,0.2233415,884.43225,784.5055,869.5238,857.4359,807.0696,-0.1820068359375,0.16864013671875,0.97540283203125,4.366455078125,-4.717864990234375,0.814971923828125,1,1.0,1.0,1.0,1.0,40.00
2023-08-18 19:15:42.192,,,,,,,,,,,,,,,,,,,,,,,,,,,,,,,,,,,,,,/muse/elements/blink
2023-08-18 19:15:42.282,1.2050158,-0.44361237,0.0,0.8477107,1.177372,-0.25969845,0.0,0.7989803,1.0212569,0.1277412,0.0,0.8908944,0.7926666,0.08825222,0.0,0.56704485,0.47640622,-0.1985324,0.0,0.26382926,526.63007,770.80585,441.61172,593.5165,774.43225,-0.27703857421875,0.1827392578125,0.93133544921875,3.050537109375,1.099090576171875,2.58697509765625,1,1.0,1.0,1.0,1.0,40.00
2023-08-18 19:15:43.292,1.2443444,0.56276315,0.0,0.8925904,1.207425,-0.0660039,0.0,0.9276632,0.92116755,0.14602731,0.0,0.6817906,0.7970205,0.19740458,0.0,0.5403023,0.508857,0.134011,0.0,0.24036321,1131.0256,777.6557,712.381,987.1795,866.30035,-0.1761474609375,0.17449951171875,0.960693359375,3.84307861328125,-8.73291015625,-1.00189208984375,1,1.0,1.0,2.0,1.0,40.00
2023-08-18 19:15:43.503,,,,,,,,,,,,,,,,,,,,,,,,,,,,,,,,,,,,,,/muse/elements/blink
2023-08-18 19:15:44.300,1.2443444,0.3329764,0.0,0.8925904,1.207425,-0.30446848,0.0,0.9276632,0.92116755,0.108393036,0.0,0.6817906,0.7970205,0.1120417,0.0,0.5403023,0.508857,-0.0012966362,0.0,0.24036321,612.4542,780.4762,809.4872,678.1319,673.2967,-0.1695556640625,0.17340087890625,0.97137451171875,5.345916748046875,-5.93658447265625,0.49346923828125,1,1.0,1.0,1.0,1.0,40.00
2023-08-18 19:15:44.717,,,,,,,,,,,,,,,,,,,,,,,,,,,,,,,,,,,,,,/muse/elements/blink
2023-08-18 19:15:45.306,1.2443444,-0.2902082,0.0,0.8925904,1.207425,-0.4176383,0.0,0.9276632,0.92116755,0.15067281,0.0,0.6817906,0.7970205,0.07920991,0.0,0.5403023,0.508857,-0.2993781,0.0,0.24036321,572.1612,770.40295,759.12085,740.18317,764.35895,-0.12255859375,0.1719970703125,0.97735595703125,4.972076416015625,-4.284210205078125,4.3365478515625,1,2.0,1.0,1.0,2.0,40.00
2023-08-18 19:15:45.954,,,,,,,,,,,,,,,,,,,,,,,,,,,,,,,,,,,,,,/muse/elements/blink
2023-08-18 19:15:46.309,1.2443444,-0.007195733,0.0,0.8925904,1.207425,-0.12886128,0.0,0.9276632,0.92116755,0.20373173,0.0,0.6817906,0.7970205,-0.09841952,0.0,0.5403023,0.508857,-0.4764433,0.0,0.24036321,1069.3773,799.41394,775.64105,807.47253,817.9487,-0.19488525390625,0.185302734375,0.97314453125,8.314208984375,4.104766845703125,-4.179534912109375,1,2.0,1.0,1.0,2.0,40.00
2023-08-18 19:15:47.311,1.2443444,0.7731054,0.0,0.8925904,1.207425,0.2204319,0.0,0.9276632,0.92116755,0.3873535,0.0,0.6817906,0.7970205,0.005153764,0.0,0.5403023,0.508857,-0.08861513,0.0,0.24036321,620.5128,778.0586,796.5934,693.8461,643.8828,-0.14276123046875,0.17626953125,0.9771728515625,4.47113037109375,-5.54779052734375,0.82244873046875,1,2.0,1.0,1.0,2.0,40.00
2023-08-18 19:15:47.365,,,,,,,,,,,,,,,,,,,,,,,,,,,,,,,,,,,,,,/muse/elements/blink
2023-08-18 19:15:48.318,1.2443444,0.5852754,0.0,0.8925904,1.207425,-0.062438894,0.0,0.9276632,0.92116755,0.37166953,0.0,0.6817906,0.7970205,0.020184427,0.0,0.5403023,0.508857,-0.29844698,0.0,0.24036321,973.47986,772.4176,804.65204,862.27106,808.68134,-0.12249755859375,0.17755126953125,0.98065185546875,4.344024658203125,-5.465545654296875,-0.366363525390625,1,2.0,1.0,1.0,2.0,40.00
2023-08-18 19:15:48.603,,,,,,,,,,,,,,,,,,,,,,,,,,,,,,,,,,,,,,/muse/elements/blink
2023-08-18 19:15:49.331,1.0678985,-0.45636234,0.0,0.8925904,0.5487067,-0.39122865,0.0,0.9276632,1.3542008,0.5392926,0.0,0.6817906,0.7742725,0.0059418166,0.0,0.5403023,0.34459084,-0.4629062,0.0,0.24036321,498.82785,785.7143,740.18317,618.49817,789.7436,-0.10699462890625,0.17779541015625,0.98651123046875,4.837493896484375,-6.10107421875,0.665435791015625,1,1.0,1.0,1.0,1.0,40.00
2023-08-18 19:15:49.911,,,,,,,,,,,,,,,,,,,,,,,,,,,,,,,,,,,,,,/muse/elements/blink
2023-08-18 19:15:50.334,0.89245474,-0.11147014,0.0,1.0127128,0.5090851,0.0033290489,0.0,0.46981952,1.445774,0.5680987,0.0,1.1478938,0.8018267,-0.07324235,0.0,0.6089936,0.260182,-0.38226023,0.0,-0.02720723,679.7436,788.5348,837.6923,680.9524,667.25275,-0.1087646484375,0.17059326171875,0.979736328125,4.35150146484375,-5.562744140625,0.142059326171875,1,1.0,1.0,1.0,1.0,40.00
2023-08-18 19:15:51.196,,,,,,,,,,,,,,,,,,,,,,,,,,,,,,,,,,,,,,/muse/elements/blink
2023-08-18 19:15:51.359,0.7070617,-0.16300718,0.0,0.66521245,0.5912898,-0.032994483,0.0,0.55394995,1.1578976,0.112161115,0.0,0.9017674,0.7794023,-0.20294721,0.0,0.5299321,0.30116293,-0.4202691,0.0,0.12094585,983.5531,779.2674,774.83514,892.0879,956.55676,-0.1063232421875,0.173095703125,0.982421875,4.598236083984375,-5.001983642578125,1.203765869140625,1,1.0,1.0,1.0,1.0,40.00
2023-08-18 19:15:52.362,0.83356667,-0.33187428,0.0,0.9953773,0.7834027,-0.37770626,0.0,0.63616776,0.9595201,0.10142361,0.0,0.9594499,0.8165267,-0.18652534,0.0,0.7556004,0.49818462,-0.3873583,0.0,0.13132617,502.85715,785.7143,757.1062,670.07324,869.5238,-0.1016845703125,0.1729736328125,0.98126220703125,4.433746337890625,-6.38519287109375,0.83740234375,1,1.0,1.0,1.0,1.0,40.00
2023-08-18 19:15:52.448,,,,,,,,,,,,,,,,,,,,,,,,,,,,,,,,,,,,,,/muse/elements/blink
2023-08-18 19:15:53.377,1.0771697,-0.3116501,0.0,0.9403346,0.973878,-0.16875541,0.0,0.7269612,1.1827201,0.1519328,0.0,1.0877513,0.8664091,-0.042258706,0.0,0.81243,0.44580722,-0.4992456,0.0,0.14098476,1080.2565,784.90845,856.63007,917.47253,863.8828,-0.10498046875,0.177490234375,0.9813232421875,4.987030029296875,-5.87677001953125,0.575714111328125,1,1.0,1.0,1.0,1.0,40.00
2023-08-18 19:15:53.788,,,,,,,,,,,,,,,,,,,,,,,,,,,,,,,,,,,,,,/muse/elements/blink
2023-08-18 19:15:54.384,1.0217937,-0.533395,0.0,1.066284,0.95112014,-0.36141956,0.0,0.59597445,1.1572701,0.06483937,0.0,1.095455,0.8343699,-0.006671728,0.0,0.6680007,0.48014173,-0.24317169,0.0,0.2394723,590.293,767.1795,824.7985,689.41394,647.1062,-0.13482666015625,0.18951416015625,0.9720458984375,6.1309814453125,-3.828125,-0.755157470703125,1,1.0,1.0,1.0,1.0,40.00
2023-08-18 19:15:55.037,,,,,,,,,,,,,,,,,,,,,,,,,,,,,,,,,,,,,,/muse/elements/blink
2023-08-18 19:15:55.395,0.8246319,-0.02104438,0.0,1.2083528,0.87954265,-0.06136472,0.0,0.3506691,0.84048927,0.0667768,0.0,0.8080794,0.8325742,0.07878477,0.0,0.47743288,0.44807246,-0.0043932144,0.0,0.37171263,869.92676,779.67035,836.8865,725.2747,699.89014,-0.1553955078125,0.19091796875,0.95703125,3.760833740234375,-16.680755615234375,0.25421142578125,1,1.0,1.0,1.0,1.0,40.00
2023-08-18 19:15:55.602,,,,,,,,,,,,,,,,,,,,,,,,,,,,,,,,,,,,,,/muse/elements/blink
2023-08-18 19:15:56.303,,,,,,,,,,,,,,,,,,,,,,,,,,,,,,,,,,,,,,/muse/elements/blink
2023-08-18 19:15:56.406,0.7949253,0.449017,0.0,1.2533947,0.85260797,-0.022314982,0.0,0.3349349,0.8019101,0.03930439,0.0,0.7082567,0.8437468,0.25988805,0.0,0.4566074,0.45183727,0.15663882,0.0,0.36192653,564.5055,783.2967,784.5055,744.61536,775.2381,-0.11346435546875,0.18145751953125,0.97198486328125,3.94775390625,-4.000091552734375,0.13458251953125,1,1.0,1.0,1.0,1.0,40.00
2023-08-18 19:15:57.436,0.7949253,0.11930752,0.0,1.2533947,0.85260797,-0.44172886,0.0,0.3349349,0.8019101,0.13798253,0.0,0.7082567,0.8437468,0.04321393,0.0,0.4566074,0.45183727,-0.017841712,0.0,0.36192653,685.38464,777.6557,813.5165,743.8095,767.5824,-0.10662841796875,0.1748046875,0.982421875,4.91973876953125,-6.661834716796875,1.12152099609375,1,2.0,1.0,1.0,2.0,40.00
2023-08-18 19:15:57.633,,,,,,,,,,,,,,,,,,,,,,,,,,,,,,,,,,,,,,/muse/elements/blink
2023-08-18 19:15:58.445,0.62255853,-0.0036315836,0.0,0.70278907,0.43561742,-0.30806047,0.0,0.38504326,0.71045923,0.12077246,0.0,0.5532185,0.8617694,-0.047974344,0.0,0.57602304,0.56136566,-0.22175768,0.0,0.19241185,763.5531,772.4176,754.2857,804.2491,998.86444,-0.0953369140625,0.17388916015625,0.97625732421875,4.56085205078125,-5.330963134765625,0.7177734375,1,1.0,1.0,1.0,1.0,40.00
2023-08-18 19:15:58.850,,,,,,,,,,,,,,,,,,,,,,,,,,,,,,,,,,,,,,/muse/elements/blink
2023-08-18 19:15:59.454,0.6509219,-0.27079487,0.0,0.5181844,0.39168894,-0.2216896,0.0,0.31989864,0.50775373,0.18595871,0.0,0.51540136,0.9359298,0.025564497,0.0,0.52337366,0.5770937,-0.32869807,0.0,0.21940927,954.5421,777.25275,796.99634,871.13556,828.4249,-0.07965087890625,0.1741943359375,0.9835205078125,5.181427001953125,-4.486083984375,1.308441162109375,1,1.0,1.0,1.0,1.0,40.00
2023-08-18 19:16:00.100,,,,,,,,,,,,,,,,,,,,,,,,,,,,,,,,,,,,,,/muse/elements/blink
2023-08-18 19:16:00.462,0.6109533,-0.19846486,0.0,0.6137878,0.335952,-0.30930787,0.0,0.20090964,0.5232008,0.20041156,0.0,0.6858469,0.7706486,0.028476093,0.0,0.6531951,0.6466808,-0.288232,0.0,0.4352134,1023.8461,781.28204,829.2308,944.4689,801.4286,-0.0806884765625,0.1793212890625,0.982666015625,4.47113037109375,-6.287994384765625,0.396270751953125,1,1.0,1.0,1.0,1.0,40.00
2023-08-18 19:16:01.366,,,,,,,,,,,,,,,,,,,,,,,,,,,,,,,,,,,,,,/muse/elements/blink
2023-08-18 19:16:01.466,-0.16202933,-0.3280169,0.0,0.3771095,-0.027346043,-0.42937514,0.0,0.25691125,0.4422678,-0.020705102,0.0,0.52843195,0.73022044,0.13665514,0.0,0.84967005,0.62616605,-0.23610282,0.0,0.541181,696.6667,771.6117,782.0879,724.4689,737.3626,-0.07000732421875,0.181640625,0.98382568359375,5.33843994140625,-5.226287841796875,0.85235595703125,1,1.0,1.0,1.0,1.0,40.00
2023-08-18 19:16:02.480,0.57562244,-0.21467492,0.0,0.3051612,0.4382706,-0.04781355,0.0,0.26937062,0.59451383,0.07713456,0.0,0.39593336,0.78608125,0.092719525,0.0,0.8751869,0.56404877,-0.36726603,0.0,0.552483,1026.6666,777.6557,793.7729,888.86444,887.6557,-0.07379150390625,0.17919921875,0.97900390625,4.83001708984375,-4.867401123046875,0.95703125,1,1.0,1.0,1.0,1.0,40.00
2023-08-18 19:16:02.580,,,,,,,,,,,,,,,,,,,,,,,,,,,,,,,,,,,,,,/muse/elements/blink
2023-08-18 19:16:03.482,0.46992362,0.09217651,0.0,0.48101377,0.35107845,0.17329545,0.0,0.4085236,0.8852984,0.1921643,0.0,0.762974,0.8058487,0.0852323,0.0,0.7499765,0.46115908,-0.3064163,0.0,0.3452447,936.8132,779.67035,821.5751,850.18317,819.15753,-0.06768798828125,0.1839599609375,0.9832763671875,4.964599609375,-5.465545654296875,0.605621337890625,1,1.0,1.0,1.0,1.0,40.00
2023-08-18 19:16:03.829,,,,,,,,,,,,,,,,,,,,,,,,,,,,,,,,,,,,,,/muse/elements/blink
2023-08-18 19:16:04.502,0.1829805,-0.18682583,0.0,0.25904813,0.368321,7.4825174E-4,0.0,0.36583382,0.86613494,0.23876072,0.0,0.80431086,0.8957249,0.09147316,0.0,0.6272024,0.49176386,-0.23774503,0.0,0.21337798,783.69965,783.2967,801.02563,771.6117,833.663,-0.06591796875,0.180908203125,0.981201171875,4.613189697265625,-5.7421875,0.710296630859375,1,1.0,1.0,1.0,1.0,40.00
2023-08-18 19:16:05.127,,,,,,,,,,,,,,,,,,,,,,,,,,,,,,,,,,,,,,/muse/elements/blink
2023-08-18 19:16:05.511,0.5098777,-0.089479186,0.0,0.3842037,0.38243243,0.031048859,0.0,0.37546304,0.6305793,0.036841765,0.0,0.73632586,0.8272258,-0.086573325,0.0,0.48630407,0.6200851,-0.38570374,0.0,0.04734132,682.5641,776.4469,780.87915,743.8095,719.6337,-0.0576171875,0.178466796875,0.9818115234375,4.792633056640625,-4.90478515625,1.07666015625,1,1.0,1.0,1.0,1.0,40.00
2023-08-18 19:16:06.444,,,,,,,,,,,,,,,,,,,,,,,,,,,,,,,,,,,,,,/muse/elements/blink
2023-08-18 19:16:06.523,0.5973468,-0.1505899,0.0,0.20229732,0.44171453,-0.08396216,0.0,0.31117523,0.5548936,0.17895968,0.0,0.6999933,0.8895257,-0.053438596,0.0,0.47723296,0.4640562,-0.40195015,0.0,0.11518906,525.82416,782.8938,794.57874,664.83514,658.3883,-0.04779052734375,0.194580078125,0.983154296875,4.867401123046875,-6.063690185546875,0.2392578125,1,1.0,1.0,1.0,1.0,40.00
2023-08-18 19:16:07.526,0.71563315,-0.5075681,0.0,0.16617073,0.48873866,-0.18136016,0.0,0.21236841,0.45448408,0.2263806,0.0,0.77851766,0.85836065,-0.052581564,0.0,0.40375045,0.5170815,-0.48701468,0.0,0.38604704,885.2381,776.04395,830.84247,810.293,711.5751,-0.0487060546875,0.19061279296875,0.9814453125,4.7552490234375,-5.09918212890625,0.88226318359375,1,1.0,1.0,1.0,1.0,40.00
2023-08-18 19:16:07.542,,,,,,,,,,,,,,,,,,,,,,,,,,,,,,,,,,,,,,/muse/elements/blink
2023-08-18 19:16:08.527,0.6892354,-0.56190366,0.0,0.53764755,0.50713336,-0.45388776,0.0,0.28098297,0.83866405,0.15152971,0.0,0.98726076,0.89303887,-0.05818585,0.0,0.58369726,0.5640914,-0.49204364,0.0,0.325892,571.75824,784.5055,778.86444,680.14655,728.0952,-0.047607421875,0.19671630859375,0.98309326171875,4.957122802734375,-5.15899658203125,0.58319091796875,1,1.0,1.0,1.0,1.0,40.00
2023-08-18 19:16:08.846,,,,,,,,,,,,,,,,,,,,,,,,,,,,,,,,,,,,,,/muse/elements/blink
2023-08-18 19:16:09.529,0.4384704,-0.32177207,0.0,0.51975334,0.40003785,-0.38728854,0.0,0.26482978,1.0085826,-0.23186088,0.0,0.9432874,0.80773103,0.054818086,0.0,0.6712937,0.42274448,-0.39799896,0.0,0.18050593,1018.20514,781.685,803.8461,892.8938,894.10254,-0.03594970703125,0.19158935546875,0.97650146484375,4.53094482421875,-5.0543212890625,0.37384033203125,1,1.0,1.0,1.0,1.0,40.00
2023-08-18 19:16:10.238,,,,,,,,,,,,,,,,,,,,,,,,,,,,,,,,,,,,,,/muse/elements/blink
2023-08-18 19:16:10.543,0.7823527,-0.29435197,0.0,0.65279174,0.88014597,-0.35549718,0.0,0.39022037,1.5191702,0.42575946,0.0,1.199402,0.91308624,0.03383451,0.0,0.7072351,0.4833671,-0.22227259,0.0,0.11712754,902.96704,782.0879,760.32965,834.87177,941.2454,-0.03955078125,0.18035888671875,0.98577880859375,4.673004150390625,-4.867401123046875,0.70281982421875,1,1.0,1.0,1.0,1.0,40.00
2023-08-18 19:16:11.536,,,,,,,,,,,,,,,,,,,,,,,,,,,,,,,,,,,,,,/muse/elements/blink
2023-08-18 19:16:11.550,0.94855785,-0.018105138,0.0,0.61505574,1.0247583,-0.025569683,0.0,0.4961131,1.5176562,0.59024125,0.0,1.1253418,0.9037777,-0.017132241,0.0,0.67759997,0.41921872,-0.39446896,0.0,0.064562984,736.55676,775.64105,767.5824,738.5714,848.1685,-0.03546142578125,0.1856689453125,0.98779296875,5.151519775390625,-6.20574951171875,1.084136962890625,1,1.0,1.0,1.0,1.0,40.00
2023-08-18 19:16:12.570,0.8921419,-0.081433825,0.0,0.7014679,0.7146901,-0.11807544,0.0,0.6378752,1.1760459,0.4362179,0.0,1.0521383,0.7322603,-0.09193079,0.0,0.5182876,0.42020056,-0.49608117,0.0,0.09877766,992.4176,775.64105,799.011,871.53845,737.76556,-0.03131103515625,0.1922607421875,0.98553466796875,5.211334228515625,-4.777679443359375,1.158905029296875,1,1.0,1.0,1.0,1.0,40.00
2023-08-18 19:16:12.932,,,,,,,,,,,,,,,,,,,,,,,,,,,,,,,,,,,,,,/muse/elements/blink
2023-08-18 19:16:13.573,0.93545836,-0.31828117,0.0,0.68396556,0.7875154,-0.27994883,0.0,0.627431,1.1392926,0.03338917,0.0,0.91964203,0.774723,-0.14830689,0.0,0.53055835,0.42239922,-0.3152836,0.0,0.1766061,1039.9634,783.69965,811.0989,921.0989,771.2088,-0.02349853515625,0.1876220703125,0.9755859375,4.32159423828125,-5.480499267578125,1.2860107421875,1,1.0,1.0,1.0,1.0,40.00
2023-08-18 19:16:14.247,,,,,,,,,,,,,,,,,,,,,,,,,,,,,,,,,,,,,,/muse/elements/blink
2023-08-18 19:16:14.577,0.90588176,-0.2811264,0.0,0.59889925,0.80125713,-0.19597943,0.0,0.4010074,1.0865312,0.14198765,0.0,0.86095786,0.7677475,-0.021980487,0.0,0.65161824,0.3330768,-0.40566766,0.0,0.08712483,562.8938,774.43225,724.87177,697.47253,958.1685,-0.06048583984375,0.1881103515625,0.9764404296875,4.987030029296875,0.441131591796875,0.538330078125,1,1.0,1.0,1.0,1.0,35.00
2023-08-18 19:16:15.593,0.9000199,-0.41076782,0.0,1.0209854,0.73965764,-0.2778048,0.0,0.56688094,0.94871086,0.254748,0.0,1.007095,0.719206,0.056170367,0.0,0.6590853,0.356275,-0.2592536,0.0,0.15022556,1000.87915,778.86444,738.1685,895.31134,861.4652,-0.10137939453125,0.19140625,0.9786376953125,5.211334228515625,-5.15899658203125,0.336456298828125,1,1.0,1.0,1.0,1.0,35.00
2023-08-18 19:16:15.694,,,,,,,,,,,,,,,,,,,,,,,,,,,,,,,,,,,,,,/muse/elements/blink
2023-08-18 19:16:16.521,,,,,,,,,,,,,,,,,,,,,,,,,,,,,,,,,,,,,,/muse/elements/jaw_clench
2023-08-18 19:16:16.604,0.8448828,-0.13777584,0.0,0.9438923,0.6966089,-0.1997075,0.0,0.8606929,0.74576753,0.21849516,0.0,0.78606313,0.7296345,0.24675542,0.0,0.55857664,0.39017448,0.20969,0.0,0.36171424,820.3663,767.5824,987.5824,889.2674,748.6447,-0.1424560546875,0.19366455078125,1.01031494140625,7.3870849609375,-12.389068603515625,2.07855224609375,1,1.0,1.0,1.0,1.0,35.00
2023-08-18 19:16:16.692,,,,,,,,,,,,,,,,,,,,,,,,,,,,,,,,,,,,,,/muse/elements/blink
2023-08-18 19:16:17.124,,,,,,,,,,,,,,,,,,,,,,,,,,,,,,,,,,,,,,/muse/elements/blink
2023-08-18 19:16:17.613,0.8448828,0.43753874,0.0,0.9438923,0.6966089,-0.051136635,0.0,0.8606929,0.74576753,0.15256473,0.0,0.78606313,0.7296345,0.3699296,0.0,0.55857664,0.39017448,0.3081321,0.0,0.36171424,994.83514,784.10254,820.3663,894.90845,808.2784,-0.1265869140625,0.16888427734375,0.982666015625,4.269256591796875,-3.72344970703125,1.21124267578125,1,1.0,1.0,1.0,1.0,35.00
2023-08-18 19:16:18.257,,,,,,,,,,,,,,,,,,,,,,,,,,,,,,,,,,,,,,/muse/elements/blink
2023-08-18 19:16:18.456,,,,,,,,,,,,,,,,,,,,,,,,,,,,,,,,,,,,,,/muse/elements/blink
2023-08-18 19:16:18.625,0.8448828,0.01833685,0.0,0.9438923,0.6966089,-0.030249283,0.0,0.8606929,0.74576753,0.042194594,0.0,0.78606313,0.7296345,0.24368928,0.0,0.55857664,0.39017448,-0.08915685,0.0,0.36171424,590.696,779.2674,774.0293,693.0403,765.56775,-0.09320068359375,0.1629638671875,0.98162841796875,4.119720458984375,-7.200164794921875,0.73272705078125,1,2.0,1.0,1.0,2.0,35.00
2023-08-18 19:16:19.637,0.78824115,-0.25309768,0.0,0.9438923,0.5407606,-0.11705628,0.0,0.8606929,0.3545546,-0.13944224,0.0,0.78606313,0.8282382,-0.0015312142,0.0,0.55857664,0.38821623,-0.27461234,0.0,0.36171424,638.6447,777.25275,830.84247,716.8132,554.83514,-0.09307861328125,0.16473388671875,0.9815673828125,4.9346923828125,-4.306640625,1.1663818359375,1,2.0,1.0,1.0,2.0,35.00
2023-08-18 19:16:19.670,,,,,,,,,,,,,,,,,,,,,,,,,,,,,,,,,,,,,,/muse/elements/blink
2023-08-18 19:16:20.645,0.60224545,-0.5035686,0.0,0.3250508,0.39398956,-0.32081208,0.0,0.41471252,0.59507346,0.015037635,0.0,0.47737265,0.7472621,-0.092252135,0.0,0.535292,0.44180617,-0.22279859,0.0,0.0022297043,877.98535,775.64105,822.381,822.381,844.5421,-0.090087890625,0.16845703125,0.9822998046875,4.867401123046875,-5.03936767578125,0.291595458984375,1,1.0,1.0,1.0,1.0,35.00
2023-08-18 19:16:20.867,,,,,,,,,,,,,,,,,,,,,,,,,,,,,,,,,,,,,,/muse/elements/blink
2023-08-18 19:16:21.655,0.4882845,-0.5734748,0.0,0.56508607,0.37983885,-0.54279476,0.0,0.41336697,0.6376022,0.110397555,0.0,0.40110332,0.7024415,-0.21011701,0.0,0.4299685,0.41577396,-0.38064212,0.0,-0.047973596,541.53845,781.685,743.00366,702.71063,774.0293,-0.09552001953125,0.169677734375,0.98394775390625,4.85992431640625,-4.725341796875,0.755157470703125,1,1.0,1.0,1.0,1.0,35.00
2023-08-18 19:16:22.202,,,,,,,,,,,,,,,,,,,,,,,,,,,,,,,,,,,,,,/muse/elements/blink
2023-08-18 19:16:22.662,0.75604707,-0.5870358,0.0,0.6687713,0.30177706,-0.43354875,0.0,0.5022097,0.6303143,0.17222396,0.0,0.3543693,0.792244,-0.19244584,0.0,0.2585973,0.39888743,-0.40055746,0.0,0.005791833,1060.5128,787.326,828.4249,892.0879,750.2564,-0.08917236328125,0.1680908203125,0.98291015625,4.373931884765625,-6.17584228515625,0.994415283203125,1,1.0,1.0,1.0,1.0,35.00
2023-08-18 19:16:23.481,,,,,,,,,,,,,,,,,,,,,,,,,,,,,,,,,,,,,,/muse/elements/blink
2023-08-18 19:16:23.665,1.0036178,-0.5690723,0.0,0.8045238,0.44334483,-0.28018817,0.0,0.54099077,0.7945073,0.13210613,0.0,0.4055034,0.8927314,-0.1231255,0.0,0.31056604,0.4320201,-0.33646113,0.0,0.16601728,748.24176,778.86444,733.73627,771.2088,1130.2197,-0.0908203125,0.17156982421875,0.98492431640625,4.964599609375,-4.68048095703125,0.73272705078125,1,1.0,1.0,1.0,1.0,35.00
2023-08-18 19:16:24.617,,,,,,,,,,,,,,,,,,,,,,,,,,,,,,,,,,,,,,/muse/elements/blink
2023-08-18 19:16:24.681,0.6051357,-0.3400264,0.0,0.59627426,0.634782,-0.13448814,0.0,0.5665117,0.9885551,0.09127188,0.0,0.7531372,0.834411,-0.062322494,0.0,0.5391162,0.3537367,-0.16409187,0.0,0.1256178,945.2747,779.67035,779.2674,852.6007,856.63007,-0.09619140625,0.166015625,0.9820556640625,4.5758056640625,-5.54779052734375,0.336456298828125,1,1.0,1.0,1.0,1.0,40.00
2023-08-18 19:16:25.691,0.50230765,-0.0044906395,0.0,0.3695436,0.6516913,-0.027558109,0.0,0.55843556,0.98626304,0.14296874,0.0,0.75777483,0.7283701,-0.012678662,0.0,0.56148964,0.3104661,-0.25492373,0.0,-0.08342972,991.6117,788.93774,824.3956,868.71796,777.6557,-0.08612060546875,0.1705322265625,0.981689453125,5.1739501953125,-4.59075927734375,1.024322509765625,1,1.0,1.0,1.0,1.0,40.00
2023-08-18 19:16:25.947,,,,,,,,,,,,,,,,,,,,,,,,,,,,,,,,,,,,,,/muse/elements/blink
2023-08-18 19:16:26.711,0.24246232,-0.13917911,0.0,0.15523612,0.39699852,-0.3722085,0.0,0.47490665,0.80584294,-0.035635673,0.0,0.53568584,0.7134905,0.016112067,0.0,0.4279297,0.34417024,-0.37992558,0.0,-0.025253173,716.0073,783.2967,813.5165,738.97437,730.5128,-0.088623046875,0.1707763671875,0.98687744140625,5.03936767578125,-5.749664306640625,0.590667724609375,1,1.0,1.0,1.0,1.0,40.00
2023-08-18 19:16:27.149,,,,,,,,,,,,,,,,,,,,,,,,,,,,,,,,,,,,,,/muse/elements/blink
2023-08-18 19:16:27.718,0.2949371,-0.23216654,0.0,0.10239864,0.31602314,-0.6341998,0.0,0.2088648,0.70056313,-0.081831254,0.0,0.44020912,0.6602204,0.0071385647,0.0,0.35473388,0.37250197,-0.28924105,0.0,0.068685636,767.5824,776.4469,794.9817,792.96704,757.1062,-0.086669921875,0.17181396484375,0.9820556640625,4.7552490234375,-4.867401123046875,0.725250244140625,1,1.0,1.0,1.0,1.0,40.00
2023-08-18 19:16:28.509,,,,,,,,,,,,,,,,,,,,,,,,,,,,,,,,,,,,,,/muse/elements/blink
2023-08-18 19:16:28.720,0.047363244,-0.33404568,0.0,0.33360097,0.30663034,-0.52744824,0.0,0.323563,0.80088204,0.19346547,0.0,0.7221687,0.76744336,0.018354757,0.0,0.37454364,0.46383184,-0.16307028,0.0,-0.03637452,532.674,784.90845,767.5824,682.5641,852.6007,-0.08154296875,0.169921875,0.98602294921875,4.9346923828125,-5.72723388671875,0.396270751953125,1,1.0,1.0,1.0,1.0,40.00
2023-08-18 19:16:29.724,0.22029379,-0.5429345,0.0,0.3205892,0.25394753,-0.5387032,0.0,0.3846492,0.7969391,0.17524272,0.0,0.76045316,0.796101,0.073355645,0.0,0.4996015,0.4245564,-0.22998895,0.0,0.051886715,770.0,788.1319,811.9048,762.3443,733.3333,-0.08642578125,0.16510009765625,0.9832763671875,4.6954345703125,-4.717864990234375,0.58319091796875,1,1.0,1.0,1.0,1.0,40.00
2023-08-18 19:16:29.813,,,,,,,,,,,,,,,,,,,,,,,,,,,,,,,,,,,,,,/muse/elements/blink
2023-08-18 19:16:30.729,0.41989055,-0.42653704,0.0,0.0823489,0.41221246,-0.544794,0.0,0.25187257,0.8764006,-0.11544486,0.0,0.71265274,0.8469087,-0.05649332,0.0,0.5060867,0.3504082,-0.49607292,0.0,0.11561909,732.9304,773.6264,796.1905,773.6264,813.91943,-0.07763671875,0.16790771484375,0.98931884765625,5.084228515625,-5.5926513671875,0.76263427734375,1,1.0,1.0,1.0,1.0,40.00
2023-08-18 19:16:31.125,,,,,,,,,,,,,,,,,,,,,,,,,,,,,,,,,,,,,,/muse/elements/blink
2023-08-18 19:16:31.751,0.50391287,-0.06132559,0.0,0.34147522,0.5484801,-0.35337657,0.0,0.4213694,1.0083836,3.0283778E-4,0.0,1.0520645,0.8222902,-0.049428795,0.0,0.5062271,0.4234862,-0.4361752,0.0,-0.008059216,966.63007,785.31134,786.9231,864.2857,827.2161,-0.0875244140625,0.1702880859375,0.98333740234375,4.9945068359375,-4.867401123046875,0.620574951171875,1,1.0,1.0,1.0,1.0,40.00
2023-08-18 19:16:32.363,,,,,,,,,,,,,,,,,,,,,,,,,,,,,,,,,,,,,,/muse/elements/blink
2023-08-18 19:16:32.767,0.5440027,-0.021758292,0.0,0.4912631,0.402296,-0.2958318,0.0,0.49396473,1.2452315,0.095578045,0.0,1.0644596,0.69786537,-0.11002433,0.0,0.4396589,0.28577626,-0.30315784,0.0,-0.032622874,992.8205,790.9524,823.1868,881.6117,807.8755,-0.076416015625,0.16815185546875,0.98309326171875,4.912261962890625,-5.24871826171875,0.7177734375,1,1.0,1.0,1.0,1.0,40.00
2023-08-18 19:16:33.585,,,,,,,,,,,,,,,,,,,,,,,,,,,,,,,,,,,,,,/muse/elements/blink
2023-08-18 19:16:33.782,0.326782,-0.0024308383,0.0,0.2145919,0.31305143,-0.30989102,0.0,0.6005544,1.2074887,0.10211367,0.0,0.9039777,0.67919564,-0.06668421,0.0,0.5522336,0.37975952,-0.31343582,0.0,-0.030344628,714.7985,779.2674,775.2381,751.4652,680.54944,-0.089111328125,0.17529296875,0.98406982421875,4.837493896484375,-5.18890380859375,0.710296630859375,1,1.0,1.0,1.0,1.0,40.00
2023-08-18 19:16:34.799,0.4727819,-0.12830515,0.0,0.26006308,0.5228771,-0.23724437,0.0,0.4271087,1.0963806,0.029800992,0.0,0.95368356,0.67319226,-0.09883425,0.0,0.6122012,0.44366089,-0.4437912,0.0,-0.025564073,993.6264,790.54944,792.1612,879.59705,887.6557,-0.0697021484375,0.16961669921875,0.9862060546875,5.0244140625,-6.59454345703125,1.00189208984375,1,1.0,1.0,1.0,1.0,40.00
2023-08-18 19:16:34.802,,,,,,,,,,,,,,,,,,,,,,,,,,,,,,,,,,,,,,/muse/elements/blink
2023-08-18 19:16:35.807,0.8641984,-0.3777861,0.0,0.55825406,0.68650997,-0.28831905,0.0,0.103501186,1.25749,0.4217498,0.0,1.3708934,0.77303374,-0.057609025,0.0,0.7857346,0.3378716,-0.43657294,0.0,0.2204866,537.1062,797.3993,804.65204,670.4762,698.2784,-0.08544921875,0.17803955078125,0.97637939453125,5.5328369140625,-4.78515625,1.0467529296875,1,1.0,1.0,1.0,1.0,40.00
2023-08-18 19:16:36.198,,,,,,,,,,,,,,,,,,,,,,,,,,,,,,,,,,,,,,/muse/elements/blink
2023-08-18 19:16:36.833,0.7571287,-0.008430384,0.0,0.75426126,0.5656013,-0.15426885,0.0,0.5381785,1.3673398,0.5321728,0.0,1.3262798,0.843891,0.108349204,0.0,0.69243306,0.3757857,-0.41146526,0.0,0.14563553,1014.17584,785.7143,798.60803,864.2857,732.52747,-0.0836181640625,0.18194580078125,0.9813232421875,5.316009521484375,-4.493560791015625,1.09161376953125,1,1.0,1.0,1.0,1.0,40.00
2023-08-18 19:16:37.409,,,,,,,,,,,,,,,,,,,,,,,,,,,,,,,,,,,,,,/muse/elements/blink
2023-08-18 19:16:37.849,0.52178794,-0.3384681,0.0,0.49090946,0.5870985,-0.5134297,0.0,0.4867567,1.0492427,0.13698305,0.0,0.5945608,0.7220608,-0.060264505,0.0,0.5041795,0.4234753,-0.41495258,0.0,0.1000535,644.68866,794.17584,770.80585,712.381,793.36993,-0.0859375,0.18695068359375,0.987060546875,4.972076416015625,-5.36834716796875,0.8074951171875,1,1.0,1.0,1.0,1.0,40.00
2023-08-18 19:16:38.628,,,,,,,,,,,,,,,,,,,,,,,,,,,,,,,,,,,,,,/muse/elements/blink
2023-08-18 19:16:38.862,0.598628,-0.44371647,0.0,0.37660483,0.51224446,-0.4817559,0.0,0.46730417,1.1832129,0.07617717,0.0,0.7974024,0.70900947,0.051832583,0.0,0.50936776,0.53398764,-0.3223276,0.0,0.15918861,819.5604,777.6557,793.36993,805.8608,725.6777,-0.085693359375,0.1824951171875,0.98492431640625,4.83001708984375,-5.540313720703125,0.979461669921875,1,1.0,1.0,1.0,1.0,40.00
2023-08-18 19:16:39.870,0.79679644,-0.40263602,0.0,0.3992365,0.5012226,-0.34120694,0.0,0.30257758,1.1161714,0.054905728,0.0,1.0186383,0.8433632,0.06450411,0.0,0.63806766,0.58301705,-0.31248745,0.0,0.08898181,562.8938,776.04395,804.2491,699.0842,804.2491,-0.08782958984375,0.187255859375,0.96929931640625,3.925323486328125,-5.420684814453125,0.11962890625,1,1.0,1.0,1.0,1.0,40.00
2023-08-18 19:16:40.092,,,,,,,,,,,,,,,,,,,,,,,,,,,,,,,,,,,,,,/muse/elements/blink
2023-08-18 19:16:40.878,0.8524954,-0.39477083,0.0,0.6212436,0.5948751,-0.35947224,0.0,0.3149012,0.9838352,-0.013762883,0.0,0.9046683,0.7168349,0.007195111,0.0,0.5622835,0.4668508,-0.35234597,0.0,0.113859475,708.3516,773.6264,799.41394,740.989,685.38464,-0.082275390625,0.1875,0.9849853515625,5.301055908203125,-5.570220947265625,1.00189208984375,1,1.0,1.0,1.0,1.0,40.00
2023-08-18 19:16:41.330,,,,,,,,,,,,,,,,,,,,,,,,,,,,,,,,,,,,,,/muse/elements/blink
2023-08-18 19:16:41.880,1.1923014,-0.30306283,0.0,0.7412379,0.8442863,-0.34376755,0.0,0.46270847,1.0540894,-0.07553136,0.0,0.98779607,0.64389664,-0.03439154,0.0,0.6199709,0.4107,-0.2670702,0.0,0.19041374,806.6667,778.46155,796.99634,808.68134,750.2564,-0.08935546875,0.190185546875,0.97882080078125,4.269256591796875,-3.372039794921875,-0.35888671875,1,1.0,1.0,1.0,1.0,40.00
2023-08-18 19:16:42.622,,,,,,,,,,,,,,,,,,,,,,,,,,,,,,,,,,,,,,/muse/elements/blink
2023-08-18 19:16:42.883,1.2967875,-0.08880107,0.0,0.5627192,1.0046588,-0.33403912,0.0,0.38263345,1.0532883,-0.029933816,0.0,0.90128076,0.6209558,0.2659626,0.0,0.7061097,0.43470728,-0.17738643,0.0,0.020985855,493.99268,778.0586,777.6557,635.0183,801.4286,-0.13250732421875,0.18463134765625,0.98101806640625,4.85992431640625,-1.891632080078125,0.179443359375,1,1.0,1.0,1.0,1.0,40.00
2023-08-18 19:16:43.892,1.2967875,-0.15464145,0.0,0.5627192,1.0046588,-0.3370665,0.0,0.38263345,1.0532883,0.12966478,0.0,0.90128076,0.6209558,0.3953354,0.0,0.7061097,0.43470728,0.075886935,0.0,0.020985855,1326.044,779.2674,849.3773,1035.1282,952.9304,-0.1865234375,0.16650390625,0.96514892578125,-1.577606201171875,-20.239715576171875,4.433746337890625,1,1.0,1.0,1.0,1.0,40.00
2023-08-18 19:16:43.934,,,,,,,,,,,,,,,,,,,,,,,,,,,,,,,,,,,,,,/muse/elements/blink
2023-08-18 19:16:44.902,1.2967875,0.37871677,0.0,0.5627192,1.0046588,0.11899754,0.0,0.38263345,1.0532883,0.4215933,0.0,0.90128076,0.6209558,0.21685879,0.0,0.7061097,0.43470728,0.08802967,0.0,0.020985855,733.73627,770.0,777.6557,830.84247,915.8608,-0.0992431640625,0.16827392578125,0.97552490234375,4.32159423828125,-0.306549072265625,1.293487548828125,1,2.0,1.0,1.0,2.0,40.00
2023-08-18 19:16:45.234,,,,,,,,,,,,,,,,,,,,,,,,,,,,,,,,,,,,,,/muse/elements/blink
2023-08-18 19:16:45.934,1.2967875,0.46233383,0.0,0.5627192,1.0046588,0.064974084,0.0,0.38263345,1.0532883,0.5404777,0.0,0.90128076,0.6209558,0.19783092,0.0,0.7061097,0.43470728,0.0040907045,0.0,0.020985855,1002.8938,781.28204,814.7253,841.7216,719.2308,-0.09014892578125,0.1546630859375,0.98492431640625,4.837493896484375,-6.23565673828125,1.323394775390625,1,2.0,1.0,1.0,2.0,40.00
2023-08-18 19:16:46.467,,,,,,,,,,,,,,,,,,,,,,,,,,,,,,,,,,,,,,/muse/elements/blink
2023-08-18 19:16:46.945,1.2967875,0.14278144,0.0,0.5627192,1.0046588,-0.24951899,0.0,0.38263345,1.0532883,0.48326993,0.0,0.90128076,0.6209558,0.11194314,0.0,0.7061097,0.43470728,-0.0022320605,0.0,0.020985855,1023.44324,781.28204,803.8461,887.6557,915.4579,-0.08740234375,0.1507568359375,0.99200439453125,5.0543212890625,-6.98333740234375,0.620574951171875,1,2.0,1.0,1.0,2.0,40.00
2023-08-18 19:16:47.687,,,,,,,,,,,,,,,,,,,,,,,,,,,,,,,,,,,,,,/muse/elements/blink
2023-08-18 19:16:47.964,0.95926964,-0.6057928,0.0,0.73081356,0.5246423,-0.38933757,0.0,0.37729165,0.76183033,0.25209245,0.0,0.6685171,0.7294504,-0.054493684,0.0,0.40562305,0.55586064,-0.11289878,0.0,0.1800645,1048.022,779.67035,797.8022,887.6557,768.7912,-0.082275390625,0.15777587890625,0.9886474609375,5.54779052734375,-4.94964599609375,1.203765869140625,1,1.0,1.0,1.0,1.0,40.00
2023-08-18 19:16:48.977,0.8723289,-0.2945893,0.0,0.6008209,0.5391757,-0.5490761,0.0,0.39135695,0.60049504,0.056325037,0.0,0.6827792,0.7935253,0.009551378,0.0,0.38861462,0.3894014,-0.14857858,0.0,0.15031166,1004.10254,781.685,815.12823,891.685,795.38464,-0.08319091796875,0.1593017578125,0.9869384765625,4.852447509765625,-4.1571044921875,1.024322509765625,1,1.0,1.0,1.0,1.0,40.00
2023-08-18 19:16:49.011,,,,,,,,,,,,,,,,,,,,,,,,,,,,,,,,,,,,,,/muse/elements/blink
2023-08-18 19:16:49.979,0.8283126,0.19725287,0.0,0.69135123,0.37997362,-0.14960717,0.0,0.3494929,0.75334716,0.27685946,0.0,0.40459445,0.79296875,0.14130133,0.0,0.23896766,0.11743164,-0.32974496,0.0,0.06561344,560.07324,780.87915,779.2674,676.9231,719.6337,-0.05352783203125,0.158203125,0.98822021484375,5.86181640625,2.31781005859375,0.418701171875,1,1.0,1.0,1.0,1.0,40.00
2023-08-18 19:16:50.212,,,,,,,,,,,,,,,,,,,,,,,,,,,,,,,,,,,,,,/muse/elements/blink
2023-08-18 19:16:50.999,0.991935,0.60852116,0.0,0.63178456,0.4461929,-5.551911E-4,0.0,0.22739719,0.7472355,0.31468794,0.0,0.28784844,0.7376382,0.25443697,0.0,0.05623019,0.20800434,-0.30655253,0.0,0.0082594985,954.5421,777.6557,589.89014,788.93774,861.06226,-0.154541015625,0.17626953125,0.973388671875,-1.323394775390625,-21.3238525390625,-0.874786376953125,1,1.0,1.0,1.0,1.0,40.00
2023-08-18 19:16:51.656,,,,,,,,,,,,,,,,,,,,,,,,,,,,,,,,,,,,,,/muse/elements/blink
2023-08-18 19:16:52.006,0.991935,0.33919102,0.0,0.63178456,0.4461929,-0.10815898,0.0,0.22739719,0.7472355,-0.2045989,0.0,0.28784844,0.7376382,0.16270277,0.0,0.05623019,0.20800434,-0.2065022,0.0,0.0082594985,800.6227,782.8938,789.34064,779.67035,787.326,-0.0946044921875,0.15545654296875,0.9896240234375,4.74029541015625,-5.14404296875,0.097198486328125,1,2.0,1.0,1.0,2.0,40.00
2023-08-18 19:16:52.887,,,,,,,,,,,,,,,,,,,,,,,,,,,,,,,,,,,,,,/muse/elements/blink
2023-08-18 19:16:53.019,0.071488775,0.08494629,0.0,0.63178456,0.6330864,-0.05635413,0.0,0.22739719,0.7370802,0.11400915,0.0,0.28784844,0.7823719,-0.0044847867,0.0,0.05623019,0.3802463,-0.39180407,0.0,0.0082594985,946.08057,779.67035,813.5165,846.9597,795.78754,-0.094482421875,0.1610107421875,0.98382568359375,5.001983642578125,-4.8748779296875,0.34393310546875,1,1.0,1.0,1.0,1.0,40.00
2023-08-18 19:16:54.022,0.111816086,-0.1422573,0.0,0.42498112,0.64039814,-0.10833895,0.0,0.46745262,1.1427422,0.38536596,0.0,1.1844196,0.7922689,0.013613016,0.0,0.7675681,0.35782915,-0.4259553,0.0,0.041642383,557.25275,786.9231,750.2564,712.381,1064.1392,-0.0894775390625,0.1591796875,0.98382568359375,4.74029541015625,-6.138458251953125,0.49346923828125,1,1.0,1.0,1.0,1.0,40.00
2023-08-18 19:16:54.087,,,,,,,,,,,,,,,,,,,,,,,,,,,,,,,,,,,,,,/muse/elements/blink
2023-08-18 19:16:55.032,0.19717214,0.019407397,0.0,0.460262,0.5707519,-0.015582464,0.0,0.7853124,1.1517882,0.41630328,0.0,1.1726199,0.8517945,-0.0024909705,0.0,0.5949759,0.35981837,-0.38655013,0.0,0.104690395,678.93774,785.7143,800.6227,744.61536,700.293,-0.1026611328125,0.1607666015625,0.9842529296875,4.837493896484375,-4.344024658203125,0.46356201171875,1,1.0,1.0,1.0,1.0,40.00
2023-08-18 19:16:55.420,,,,,,,,,,,,,,,,,,,,,,,,,,,,,,,,,,,,,,/muse/elements/blink
2023-08-18 19:16:56.046,0.16975977,-0.21240595,0.0,0.5594336,0.26888078,-0.077860944,0.0,0.9168794,1.0147527,0.13870214,0.0,0.71624094,0.87390506,-0.012771541,0.0,0.5375094,0.3421788,-0.45495462,0.0,0.14624815,773.22345,774.0293,806.6667,768.3883,732.1245,-0.10406494140625,0.16162109375,0.98052978515625,5.0543212890625,-5.375823974609375,1.128997802734375,1,1.0,1.0,1.0,1.0,40.00
2023-08-18 19:16:56.641,,,,,,,,,,,,,,,,,,,,,,,,,,,,,,,,,,,,,,/muse/elements/blink
2023-08-18 19:16:57.061,0.8643341,-0.27210245,0.0,0.4670987,0.53076136,-0.11415859,0.0,0.3221386,0.6592157,-0.04020217,0.0,0.72207063,0.8668194,0.10709904,0.0,0.65225816,0.3739624,-0.36756608,0.0,0.02930405,531.06226,785.31134,744.21246,681.3553,801.4286,-0.099365234375,0.163330078125,0.98834228515625,5.21881103515625,-5.988922119140625,0.8074951171875,1,1.0,1.0,1.0,1.0,40.00
2023-08-18 19:16:57.935,,,,,,,,,,,,,,,,,,,,,,,,,,,,,,,,,,,,,,/muse/elements/blink
2023-08-18 19:16:58.085,0.45025924,-0.28675044,0.0,0.37602037,0.6352933,-0.2590065,0.0,0.36197346,0.71213686,-0.2199111,0.0,0.831554,0.8977183,0.1216771,0.0,0.63828826,0.3044215,-0.40981963,0.0,-0.11824449,541.13556,787.326,755.4945,691.4286,828.022,-0.09326171875,0.16357421875,0.98248291015625,4.8150634765625,-5.001983642578125,0.5084228515625,1,1.0,1.0,1.0,1.0,40.00
2023-08-18 19:16:59.089,0.5444329,-0.104127355,0.0,0.45343468,0.58017206,-0.34412166,0.0,0.37010983,0.7107159,0.011424869,0.0,0.7099156,0.9278752,-0.09404522,0.0,0.6669517,0.43827504,-0.32883263,0.0,-0.04256414,649.5238,787.72894,807.0696,702.3077,714.3956,-0.08758544921875,0.1639404296875,0.98406982421875,4.964599609375,-4.418792724609375,1.07666015625,1,1.0,1.0,1.0,1.0,40.00
2023-08-18 19:16:59.170,,,,,,,,,,,,,,,,,,,,,,,,,,,,,,,,,,,,,,/muse/elements/blink
2023-08-18 19:17:00.099,0.728222,0.06007501,-0.06382907,0.11287621,0.45580873,-0.7370874,0.25644544,0.3262702,0.6407626,-0.07125444,0.5587421,0.6030173,0.9473504,-0.071200654,1.2412012,0.66982734,0.43456578,-0.41954598,0.8787845,-0.02792691,953.73627,785.31134,795.38464,857.8388,763.1502,-0.09423828125,0.16888427734375,0.989501953125,5.046844482421875,-5.562744140625,0.411224365234375,1,1.0,1.0,1.0,1.0,40.00
2023-08-18 19:17:00.464,,,,,,,,,,,,,,,,,,,,,,,,,,,,,,,,,,,,,,/muse/elements/blink
2023-08-18 19:17:01.105,0.79826987,-0.25464147,-0.026835179,0.22473249,0.7701808,-0.2204108,0.30955115,0.678529,1.0689044,0.55666715,0.5976361,1.3981969,0.84635633,-0.059798658,1.1985878,0.67425424,0.40541986,-0.4365757,1.0072253,0.01799481,562.0879,783.69965,759.12085,721.2454,772.8205,-0.09912109375,0.17083740234375,0.97540283203125,4.50103759765625,-3.46923828125,0.814971923828125,1,1.0,1.0,1.0,1.0,40.00
2023-08-18 19:17:01.814,,,,,,,,,,,,,,,,,,,,,,,,,,,,,,,,,,,,,,/muse/elements/blink
2023-08-18 19:17:02.112,0.75853455,-0.08474542,-0.30172104,0.69387305,0.9870059,0.03499002,0.25203618,0.8408361,1.0766491,0.5335381,0.6942572,1.4082782,0.81401753,-0.006597971,1.1792823,0.63751614,0.48631793,-0.28992927,0.80354893,0.24685815,1025.4579,783.2967,788.5348,875.16486,686.99634,-0.08062744140625,0.1673583984375,0.9788818359375,5.465545654296875,-5.96649169921875,1.158905029296875,1,1.0,1.0,1.0,1.0,40.00
2023-08-18 19:17:03.114,0.89604664,-0.1173305,-0.24352069,0.9166314,0.6413091,-0.086817406,0.43751508,0.7131028,0.48185387,0.16894124,0.81916314,0.84435046,0.78366303,-0.14537653,1.2222989,0.56101507,0.4784187,-0.2360737,0.9648213,0.18722521,943.663,790.14655,794.17584,824.7985,781.685,-0.07696533203125,0.17413330078125,0.9984130859375,4.1571044921875,-6.5496826171875,1.33087158203125,1,1.0,1.0,1.0,1.0,40.00
2023-08-18 19:17:03.118,,,,,,,,,,,,,,,,,,,,,,,,,,,,,,,,,,,,,,/muse/elements/blink
2023-08-18 19:17:04.124,0.7923078,-0.2584892,-0.15795429,0.5203652,0.48923773,-0.2814651,0.46466726,0.4991885,0.70161456,0.18395656,0.87884563,0.89077955,0.7235067,-0.042069215,1.2584728,0.59827393,0.50307006,-0.44202477,1.0529101,0.056227345,806.26373,794.57874,778.0586,791.75824,867.9121,-0.05474853515625,0.1817626953125,0.98614501953125,5.031890869140625,-5.824432373046875,1.069183349609375,1,1.0,1.0,1.0,1.0,40.00
2023-08-18 19:17:04.307,,,,,,,,,,,,,,,,,,,,,,,,,,,,,,,,,,,,,,/muse/elements/blink
2023-08-18 19:17:05.129,0.6696088,-0.38866898,0.0521832,0.6341465,0.6511253,-0.34565094,0.35548398,0.40506276,1.5038413,0.22982417,0.7701217,0.8366241,0.7988402,0.023855323,1.2691578,0.6206119,0.40936533,-0.40367538,0.8962301,0.20005074,1036.7399,796.5934,801.4286,879.59705,911.02563,-0.0528564453125,0.1842041015625,0.98211669921875,4.867401123046875,-5.33843994140625,1.248626708984375,1,1.0,1.0,1.0,1.0,40.00
2023-08-18 19:17:05.690,,,,,,,,,,,,,,,,,,,,,,,,,,,,,,,,,,,,,,/muse/elements/blink
2023-08-18 19:17:06.132,0.60653514,-0.002736734,0.09790366,0.67556036,0.78723264,-0.05039588,0.41171423,0.46155027,1.5231638,0.24971259,0.70014375,0.7107302,0.79811335,-0.12524183,1.2389607,0.63214254,0.5035861,-0.3873786,0.90578127,0.2489242,857.8388,783.2967,802.23444,811.0989,794.17584,-0.04364013671875,0.1806640625,0.9808349609375,4.80010986328125,-4.314117431640625,1.24114990234375,1,1.0,1.0,1.0,1.0,40.00
2023-08-18 19:17:06.907,,,,,,,,,,,,,,,,,,,,,,,,,,,,,,,,,,,,,,/muse/elements/blink
2023-08-18 19:17:07.134,0.5092078,-0.115076184,0.07079821,0.8985269,0.7079817,-0.10931001,0.38800922,0.51363677,0.79999685,0.24713264,0.6827664,0.786076,0.7251217,-0.17756593,1.1957049,0.45547405,0.603444,-0.2570022,0.92025685,-0.06980087,866.7033,783.2967,761.9414,807.47253,867.9121,-0.03369140625,0.18548583984375,0.9844970703125,6.302947998046875,-6.287994384765625,-0.082244873046875,1,1.0,1.0,1.0,1.0,40.00
2023-08-18 19:17:08.152,0.8129493,-0.4107345,0.07079821,1.122318,0.60903114,-0.30692273,0.38800922,0.45743254,0.8792711,0.25108397,0.6827664,0.88724333,0.778415,-0.049088866,1.1957049,0.39472046,0.31878033,-0.4042461,0.92025685,-0.06585842,1019.81683,788.5348,824.7985,920.696,727.28937,-0.01806640625,0.1807861328125,1.0020751953125,4.344024658203125,-4.059906005859375,-1.009368896484375,1,1.0,1.0,1.0,1.0,40.00
2023-08-18 19:17:08.221,,,,,,,,,,,,,,,,,,,,,,,,,,,,,,,,,,,,,,/muse/elements/blink
2023-08-18 19:17:09.161,1.1574401,-0.04539096,0.07079821,1.0319905,1.0015769,0.01319313,0.38800922,0.5464122,0.93054885,0.082613535,0.6827664,0.7725455,0.6926185,-0.055533774,1.1957049,0.47411603,0.48220447,-0.2620169,0.92025685,0.095662236,628.5714,782.8938,798.20514,714.7985,684.17584,-0.06146240234375,0.18017578125,0.9881591796875,5.15899658203125,-2.73651123046875,0.306549072265625,1,1.0,1.0,1.0,1.0,40.00
2023-08-18 19:17:09.520,,,,,,,,,,,,,,,,,,,,,,,,,,,,,,,,,,,,,,/muse/elements/blink
2023-08-18 19:17:10.174,1.2474022,-0.20396633,-0.24331275,0.99981105,1.0921904,-0.23348036,-0.09061774,0.5962505,0.92445964,-0.035533752,0.54699785,0.7686533,0.7352138,0.04340623,1.2552007,0.44529027,0.572031,-0.06261854,0.6918825,0.11156933,974.2857,789.7436,776.8498,709.9634,1002.8938,-0.1981201171875,0.1961669921875,0.95458984375,3.386993408203125,0.859832763671875,-2.729034423828125,1,1.0,1.0,1.0,1.0,40.00
2023-08-18 19:17:10.720,,,,,,,,,,,,,,,,,,,,,,,,,,,,,,,,,,,,,,/muse/elements/blink
2023-08-18 19:17:10.916,,,,,,,,,,,,,,,,,,,,,,,,,,,,,,,,,,,,,,/muse/elements/blink
2023-08-18 19:17:11.181,1.1411172,0.27870607,-0.22113815,0.99981105,1.0001847,-0.21102992,-0.113839686,0.5962505,0.86205125,0.119833454,0.5215132,0.7686533,0.8783266,0.19072913,1.2727958,0.44529027,0.5467031,0.05682727,0.68162435,0.11156933,536.30035,790.54944,821.5751,771.2088,674.90845,-0.06982421875,0.1712646484375,0.97705078125,3.84307861328125,-3.5589599609375,-0.3289794921875,1,1.0,1.0,1.0,1.0,40.00
2023-08-18 19:17:12.049,,,,,,,,,,,,,,,,,,,,,,,,,,,,,,,,,,,,,,/muse/elements/blink
2023-08-18 19:17:12.195,1.1411172,0.2830426,-0.22113815,0.99981105,1.0001847,-0.5459173,-0.113839686,0.5962505,0.86205125,-0.06765113,0.5215132,0.7686533,0.8783266,-0.112157136,1.2727958,0.44529027,0.5467031,-0.25165626,0.68162435,0.11156933,1053.663,784.5055,815.12823,873.95605,788.5348,-0.0672607421875,0.17742919921875,0.97955322265625,5.555267333984375,-6.4300537109375,2.19818115234375,1,2.0,1.0,1.0,2.0,40.00
2023-08-18 19:17:13.200,1.1411172,-0.39568475,-0.22113815,0.99981105,1.0001847,-0.5253246,-0.113839686,0.5962505,0.86205125,-0.20811975,0.5215132,0.7686533,0.8783266,-0.1587169,1.2727958,0.44529027,0.5467031,-0.44373226,0.68162435,0.11156933,758.71796,784.90845,792.96704,828.4249,840.9158,-0.0504150390625,0.16943359375,0.987060546875,5.181427001953125,-10.146026611328125,1.338348388671875,1,2.0,1.0,1.0,2.0,40.00
2023-08-18 19:17:13.284,,,,,,,,,,,,,,,,,,,,,,,,,,,,,,,,,,,,,,/muse/elements/blink
2023-08-18 19:17:14.201,1.1411172,-0.08032002,-0.22113815,0.99981105,1.0001847,-0.40525004,-0.113839686,0.5962505,0.86205125,-0.10543417,0.5215132,0.7686533,0.8783266,-0.031628817,1.2727958,0.44529027,0.5467031,-0.47042033,0.68162435,0.11156933,536.7033,778.46155,785.7143,671.685,652.74725,-0.0426025390625,0.17742919921875,0.98394775390625,4.643096923828125,-6.05621337890625,0.538330078125,1,2.0,1.0,1.0,2.0,40.00
2023-08-18 19:17:14.614,,,,,,,,,,,,,,,,,,,,,,,,,,,,,,,,,,,,,,/muse/elements/blink
2023-08-18 19:17:15.212,1.1411172,0.077168465,0.27695173,0.99981105,1.0001847,-0.105420396,0.4273225,0.5962505,0.86205125,-0.033933356,0.66102886,0.7686533,0.8783266,0.018638205,1.1862472,0.44529027,0.5467031,-0.44279456,0.57147884,0.11156933,1036.337,784.10254,834.4689,892.8938,807.47253,-0.0352783203125,0.18359375,0.98248291015625,5.450592041015625,-5.824432373046875,0.2392578125,1,2.0,1.0,1.0,2.0,40.00
2023-08-18 19:17:15.796,,,,,,,,,,,,,,,,,,,,,,,,,,,,,,,,,,,,,,/muse/elements/blink
2023-08-18 19:17:16.225,1.1411172,-0.31120655,0.27695173,0.87210786,1.0001847,-0.1369306,0.4273225,0.29936126,0.86205125,-0.022901062,0.66102886,0.57201016,0.8783266,0.12081596,1.1862472,0.74250954,0.5467031,-0.2543956,0.57147884,0.2052148,627.76556,781.685,771.6117,730.10986,884.83514,-0.02850341796875,0.1907958984375,0.97955322265625,5.659942626953125,-5.323486328125,0.67291259765625,1,1.0,1.0,1.0,1.0,40.00
2023-08-18 19:17:17.110,,,,,,,,,,,,,,,,,,,,,,,,,,,,,,,,,,,,,,/muse/elements/blink
2023-08-18 19:17:17.240,0.4101529,-0.7526466,0.27695173,0.33355388,0.09347555,-0.6142346,0.4273225,0.28211188,0.56702846,-0.14160097,0.66102886,0.65180516,0.80127156,0.098218784,1.1862472,0.7753898,0.513496,-0.2345247,0.57147884,0.35591942,961.79486,788.1319,785.31134,847.3626,698.68134,-0.0126953125,0.19964599609375,0.98114013671875,5.48797607421875,-5.734710693359375,0.829925537109375,1,1.0,1.0,1.0,1.0,40.00
2023-08-18 19:17:18.250,0.32598472,-0.47298086,0.17281333,0.26859295,0.47600892,-0.3621448,0.26773933,0.30794212,0.70616025,-0.17820062,0.54606706,0.69950444,0.72570145,-0.04691211,1.1557299,0.7059902,0.5479963,-0.29576015,0.8020929,0.22470336,531.8681,778.46155,791.3553,679.7436,638.24176,-0.0224609375,0.19805908203125,0.990234375,4.23187255859375,-5.51788330078125,0.67291259765625,1,1.0,1.0,1.0,1.0,40.00
2023-08-18 19:17:18.460,,,,,,,,,,,,,,,,,,,,,,,,,,,,,,,,,,,,,,/muse/elements/blink
2023-08-18 19:17:19.266,0.3684966,-0.3909533,0.17281333,0.66752285,0.6111522,-0.3546258,0.26773933,0.5193508,0.8143438,-0.14603996,0.54606706,0.70564336,0.76177704,-0.17592487,1.1557299,0.5573899,0.47691095,-0.23106942,0.8020929,-2.8429565E-4,1034.7252,786.52014,801.8315,867.50916,783.2967,-0.00885009765625,0.19549560546875,0.981201171875,5.8319091796875,-5.7421875,0.785064697265625,1,1.0,1.0,1.0,1.0,40.00
2023-08-18 19:17:19.688,,,,,,,,,,,,,,,,,,,,,,,,,,,,,,,,,,,,,,/muse/elements/blink
2023-08-18 19:17:20.280,0.6614273,-0.12620258,0.17281333,0.6438703,0.5820798,-0.24324818,0.26773933,0.4768482,0.79169524,0.055150703,0.54606706,0.71324474,0.7304672,0.0030803336,1.1557299,0.4411315,0.46731037,-0.23912597,0.8020929,0.11956476,709.15753,789.34064,746.2271,750.65936,904.9817,-0.001708984375,0.20068359375,0.97930908203125,4.239349365234375,-4.583282470703125,0.216827392578125,1,1.0,1.0,1.0,1.0,40.00
2023-08-18 19:17:21.003,,,,,,,,,,,,,,,,,,,,,,,,,,,,,,,,,,,,,,/muse/elements/blink
2023-08-18 19:17:21.287,0.65077007,-0.11675784,0.17281333,0.30330724,0.45108747,-0.17768046,0.26773933,0.4367046,0.70431036,0.059304155,0.54606706,0.5863381,0.7146183,0.10333253,1.1557299,0.42600754,0.3778677,-0.30041823,0.8020929,0.13001086,546.77655,790.54944,794.17584,661.6117,698.68134,-0.0035400390625,0.2005615234375,0.97991943359375,4.0972900390625,-4.47113037109375,0.351409912109375,1,1.0,1.0,1.0,1.0,40.00
2023-08-18 19:17:22.219,,,,,,,,,,,,,,,,,,,,,,,,,,,,,,,,,,,,,,/muse/elements/blink
2023-08-18 19:17:22.300,0.5885401,-0.061528962,-0.12981255,0.18303537,0.5207988,-0.23008028,-0.038400408,0.36495346,0.6936678,-0.033628404,0.711637,0.55546814,0.73343074,-0.009083324,1.2598668,0.50419635,0.3461832,-0.13938971,0.83195627,0.23383763,950.10986,794.57874,792.96704,844.5421,799.81683,-0.00244140625,0.2015380859375,0.98712158203125,4.9346923828125,-5.93658447265625,1.278533935546875,1,1.0,1.0,1.0,1.0,40.00
2023-08-18 19:17:23.302,0.7454255,0.15547848,-0.050866887,0.40050068,0.6439136,-0.18840688,0.063505664,0.12300933,0.6386708,0.052640676,0.74864095,0.5075139,0.68666816,-0.038659595,1.2142669,0.53270674,0.40057033,-0.1744496,0.74487513,0.28899485,581.8315,783.2967,755.4945,718.022,792.5641,-0.0069580078125,0.1900634765625,0.98223876953125,4.643096923828125,-6.093597412109375,0.246734619140625,1,1.0,1.0,1.0,1.0,40.00
2023-08-18 19:17:23.433,,,,,,,,,,,,,,,,,,,,,,,,,,,,,,,,,,,,,,/muse/elements/blink
2023-08-18 19:17:24.306,0.7454255,-0.124962986,0.23777264,0.9349091,0.6439136,-0.10514467,0.022456829,0.71665645,0.6386708,0.18408902,0.7285689,0.57613665,0.68666816,0.052169245,1.1464735,0.7563093,0.40057033,-0.27841067,0.6893547,0.38035735,1031.9048,782.8938,824.7985,910.6227,818.7546,0.01763916015625,0.18817138671875,0.99066162109375,3.970184326171875,-6.048736572265625,-0.291595458984375,1,1.0,1.0,1.0,1.0,40.00
2023-08-18 19:17:24.645,,,,,,,,,,,,,,,,,,,,,,,,,,,,,,,,,,,,,,/muse/elements/blink
2023-08-18 19:17:25.313,0.98575604,-0.43075147,0.18762262,1.0108722,0.7057534,0.030597007,0.09265399,0.47331917,1.0712557,0.16594708,0.6540692,0.89252657,0.7429457,0.050916392,1.0671846,0.6424318,0.4299007,-0.2718684,0.6259589,0.3142578,827.2161,781.28204,793.7729,835.2747,851.39197,0.00848388671875,0.191162109375,0.9869384765625,4.8748779296875,-4.44122314453125,0.710296630859375,1,1.0,1.0,1.0,1.0,40.00
2023-08-18 19:17:25.975,,,,,,,,,,,,,,,,,,,,,,,,,,,,,,,,,,,,,,/muse/elements/blink
2023-08-18 19:17:26.319,1.2154102,-0.34220427,-0.057723567,0.6986274,1.0408238,-0.17263496,-0.016486624,0.5288433,1.0704961,-0.29726717,0.6650442,0.9293981,0.72369653,0.015217487,1.1992024,0.5650696,0.34107456,-0.30831218,0.6055345,0.26230076,937.2161,786.9231,773.22345,858.6447,776.4469,-0.02154541015625,0.184814453125,0.976806640625,3.94775390625,-4.687957763671875,0.037384033203125,1,1.0,1.0,1.0,1.0,35.00
2023-08-18 19:17:27.195,,,,,,,,,,,,,,,,,,,,,,,,,,,,,,,,,,,,,,/muse/elements/blink
2023-08-18 19:17:27.325,1.0798541,-0.12766464,0.07590236,0.74168813,0.9884051,-0.31078878,0.06294253,0.45118687,0.9927468,-0.15430838,0.4959731,0.70610845,0.818587,0.06258518,1.0487466,0.43677998,0.3344593,-0.36175835,0.7605991,0.28348154,572.1612,783.69965,791.3553,715.2015,803.44324,-0.0262451171875,0.1939697265625,0.97955322265625,4.777679443359375,-4.47113037109375,0.79254150390625,1,1.0,1.0,1.0,1.0,35.00
2023-08-18 19:17:28.327,1.1510686,-0.2348292,-0.2927974,0.7348887,0.74553275,-0.42780602,-0.15301746,0.52456653,0.71528554,-0.10431316,0.3092554,0.48420027,0.6715919,0.21106116,0.998928,0.48432338,0.26987553,-0.36754775,0.7365034,0.10480053,670.4762,796.5934,806.26373,781.685,812.71063,-0.07037353515625,0.18865966796875,0.93890380859375,1.3458251953125,-5.585174560546875,-2.452392578125,1,1.0,1.0,1.0,1.0,35.00
2023-08-18 19:17:28.448,,,,,,,,,,,,,,,,,,,,,,,,,,,,,,,,,,,,,,/muse/elements/blink
2023-08-18 19:17:29.329,1.552134,-0.3359674,-0.44356343,0.80148625,1.2858763,-0.35838217,-0.35407138,0.77639425,0.8940275,-0.015047852,0.19235705,0.35969892,0.8388497,0.109643675,1.0756016,0.48999134,0.46393937,-0.11108833,0.6185906,0.16385388,961.79486,774.0293,752.674,876.3736,968.24176,-0.0633544921875,0.17657470703125,0.9837646484375,4.418792724609375,-7.155303955078125,0.59814453125,1,1.0,1.0,1.0,1.0,35.00
2023-08-18 19:17:29.610,,,,,,,,,,,,,,,,,,,,,,,,,,,,,,,,,,,,,,/muse/elements/blink
2023-08-18 19:17:30.339,1.4863952,-0.26375082,-0.44356343,0.8184191,1.3118827,-0.13467634,-0.35407138,0.83701116,0.8188983,0.3967253,0.19235705,0.31553778,0.73481375,0.05650952,1.0756016,0.48065782,0.45783567,-0.4240603,0.6185906,0.20954023,572.96704,778.46155,782.49084,711.1722,746.63007,-0.0611572265625,0.1734619140625,0.98333740234375,4.598236083984375,-4.478607177734375,0.755157470703125,1,1.0,1.0,1.0,1.0,35.00
2023-08-18 19:17:31.030,,,,,,,,,,,,,,,,,,,,,,,,,,,,,,,,,,,,,,/muse/elements/blink
2023-08-18 19:17:31.356,0.6634587,0.07551122,0.20349042,1.1198491,0.674655,-0.33151916,0.34246397,1.0316937,0.58070225,0.37910903,0.409314,1.0089378,0.5183138,-0.017568078,1.0608163,0.64112735,0.4656855,-0.38193366,0.8362716,0.21461788,1041.1721,782.0879,813.5165,886.04395,815.9341,-0.0618896484375,0.16864013671875,0.9866943359375,4.78515625,-5.72723388671875,1.188812255859375,1,1.0,1.0,1.0,1.0,35.00
2023-08-18 19:17:32.355,,,,,,,,,,,,,,,,,,,,,,,,,,,,,,,,,,,,,,/muse/elements/blink
2023-08-18 19:17:32.368,0.5532502,-0.16836692,0.118874505,0.06634489,0.55407894,-0.23159356,0.27036497,0.24977796,0.8430312,-0.10811,0.53835016,0.7009949,0.65771884,-0.15394269,1.0879031,0.5610352,0.4734395,-0.29085788,0.7522005,0.16729677,772.01465,782.0879,741.79486,803.8461,1006.52014,-0.0631103515625,0.17034912109375,0.984619140625,4.568328857421875,-5.38330078125,0.58319091796875,1,1.0,1.0,1.0,1.0,35.00
2023-08-18 19:17:33.375,0.8454728,-0.41893885,-0.05677733,0.2445525,0.44511628,-0.23310953,0.21128912,0.35465363,0.80171525,-0.22689041,0.29973218,0.68035257,0.77139866,-0.07866189,1.1330856,0.59018785,0.39057273,-0.14958133,0.71125704,0.10005018,911.8315,786.1172,783.69965,841.7216,780.87915,-0.05438232421875,0.16845703125,0.98931884765625,4.478607177734375,-6.220703125,0.46356201171875,1,1.0,1.0,1.0,1.0,35.00
2023-08-18 19:17:33.571,,,,,,,,,,,,,,,,,,,,,,,,,,,,,,,,,,,,,,/muse/elements/blink
2023-08-18 19:17:34.381,0.81803364,-0.16137117,-0.07744639,0.5842372,0.5454759,-0.55659485,-0.3595205,0.47525522,0.6755659,-0.31744692,0.4846804,0.72395355,0.74110883,-0.05716162,1.1432897,0.5911059,0.31021857,-0.24690585,0.58053267,0.110058494,742.6007,783.69965,792.1612,720.4396,988.7912,-0.03973388671875,0.1705322265625,0.98870849609375,5.151519775390625,-5.63751220703125,0.3887939453125,1,1.0,1.0,1.0,1.0,35.00
2023-08-18 19:17:34.785,,,,,,,,,,,,,,,,,,,,,,,,,,,,,,,,,,,,,,/muse/elements/blink
2023-08-18 19:17:35.391,0.34639964,-0.14027989,0.04318277,0.747798,0.20708193,-0.5845227,-0.015947321,0.15022445,0.70245355,0.02277953,0.49574047,0.81190807,0.7038327,-0.031271923,1.1317405,0.552523,0.3314993,-0.2955382,0.5390532,0.04887501,616.4835,786.9231,786.52014,691.02563,746.63007,-0.0233154296875,0.16796875,0.989990234375,5.06927490234375,-5.435638427734375,0.76263427734375,1,1.0,1.0,1.0,1.0,35.00
2023-08-18 19:17:36.172,,,,,,,,,,,,,,,,,,,,,,,,,,,,,,,,,,,,,,/muse/elements/blink
2023-08-18 19:17:36.395,0.5349145,-0.35017908,0.012674711,0.63429236,0.31617674,-0.393007,0.18790302,-0.10266567,1.0693207,0.17426871,0.5441712,0.80825675,0.70987326,-0.03947675,1.1227989,0.50325423,0.34923473,-0.21382353,0.8391548,0.019714186,915.4579,779.67035,794.57874,827.619,768.7912,-0.02117919921875,0.171875,0.982421875,4.538421630859375,-5.390777587890625,0.49346923828125,1,1.0,1.0,1.0,1.0,35.00
2023-08-18 19:17:37.237,,,,,,,,,,,,,,,,,,,,,,,,,,,,,,,,,,,,,,/muse/elements/blink
2023-08-18 19:17:37.397,1.0448126,-0.32758215,-0.046948213,0.46887907,0.65795577,-0.19887057,-0.019252993,0.44681323,0.9012959,-0.023840042,0.47065812,0.41307557,0.7438927,0.0014306651,1.1197041,0.643292,0.64889306,-0.17406687,0.67190725,0.33607355,580.6227,796.99634,803.44324,692.6374,727.6923,-0.02557373046875,0.16571044921875,0.99444580078125,5.615081787109375,-6.1907958984375,0.426177978515625,1,1.0,1.0,1.0,1.0,35.00
2023-08-18 19:17:38.418,1.009341,-0.12671702,-0.21267506,0.6985824,0.87413114,-0.27247447,-0.17288609,0.6948397,1.2131647,-0.09811159,0.5047828,1.206544,0.7676497,-0.09376014,1.1168239,0.7098118,0.66655487,-0.29327872,0.65520585,0.38093096,828.4249,774.43225,782.8938,800.6227,650.7326,-0.02130126953125,0.1746826171875,0.98358154296875,4.8150634765625,-4.837493896484375,0.34393310546875,1,1.0,1.0,1.0,1.0,35.00
2023-08-18 19:17:38.616,,,,,,,,,,,,,,,,,,,,,,,,,,,,,,,,,,,,,,/muse/elements/blink
2023-08-18 19:17:39.420,0.9046203,-0.17547245,-0.010527161,0.87772065,0.7569922,-0.5013111,0.17719798,0.59009856,1.2513543,0.10721079,0.54705244,1.2091147,0.76345396,-0.07575491,1.1146623,0.6688802,0.36411572,-0.21394368,0.7714237,0.08253992,1009.7436,785.31134,784.10254,907.8022,912.6374,-0.0263671875,0.18707275390625,0.98602294921875,4.9945068359375,-5.00946044921875,0.710296630859375,1,1.0,1.0,1.0,1.0,35.00
2023-08-18 19:17:39.896,,,,,,,,,,,,,,,,,,,,,,,,,,,,,,,,,,,,,,/muse/elements/blink
2023-08-18 19:17:40.429,1.1049836,-0.16669725,0.23287047,0.3938666,0.73938125,-0.38985756,0.34948158,0.10972901,0.907929,0.19997525,0.583773,1.0162286,0.73784524,0.03427517,1.1207019,0.7476261,0.40261814,-0.23341551,0.7262301,-0.021260934,612.4542,788.5348,805.05493,718.8278,620.10986,-0.04541015625,0.182373046875,0.97161865234375,5.36834716796875,-3.81317138671875,0.82244873046875,1,1.0,1.0,1.0,1.0,35.00
2023-08-18 19:17:41.112,,,,,,,,,,,,,,,,,,,,,,,,,,,,,,,,,,,,,,/muse/elements/blink
2023-08-18 19:17:41.439,1.2099111,-0.23084451,-0.03160623,0.7937633,0.8525173,-0.39465323,0.030671772,0.2066867,0.85929745,0.087614305,0.6656626,0.57997084,0.66681415,0.12771502,1.0708479,0.68685097,0.36293286,-0.3134087,0.7146873,-0.0012990262,945.6777,784.5055,815.9341,837.6923,735.34796,-0.0340576171875,0.1837158203125,0.98529052734375,5.15899658203125,-6.721649169921875,1.622467041015625,1,1.0,1.0,1.0,1.0,35.00
2023-08-18 19:17:42.247,,,,,,,,,,,,,,,,,,,,,,,,,,,,,,,,,,,,,,/muse/elements/blink
2023-08-18 19:17:42.407,,,,,,,,,,,,,,,,,,,,,,,,,,,,,,,,,,,,,,/muse/elements/blink
2023-08-18 19:17:42.442,1.2946682,-0.33094516,-0.17222957,0.96626043,0.69372916,-0.5246377,-0.24950959,0.31966677,0.60173476,0.04965697,0.6535325,0.86413354,0.5340524,0.08600975,0.9977805,0.68942297,0.22806305,-0.12435813,0.7096902,0.15793462,411.79486,817.1429,1537.5824,537.50916,659.59705,0.0452880859375,0.25177001953125,1.0369873046875,0.725250244140625,-14.183502197265625,-2.691650390625,1,1.0,1.0,1.0,1.0,35.00
2023-08-18 19:17:42.543,,,,,,,,,,,,,,,,,,,,,,,,,,,,,,,,,,,,,,/muse/elements/jaw_clench
2023-08-18 19:17:43.451,1.2946682,0.79829603,-0.07603088,0.80030096,0.69372916,0.0092951385,-0.35573015,0.5095269,0.60173476,0.37839743,0.6294237,0.86413354,0.5340524,0.56873715,0.96263963,0.7505196,0.22806305,0.37562224,0.7168022,0.291403,701.0989,783.2967,741.79486,773.6264,694.65204,-0.038818359375,0.18804931640625,0.98516845703125,5.375823974609375,-3.4393310546875,2.908477783203125,1,1.0,1.0,1.0,1.0,35.00
2023-08-18 19:17:43.464,,,,,,,,,,,,,,,,,,,,,,,,,,,,,,,,,,,,,,/muse/elements/blink
2023-08-18 19:17:43.734,,,,,,,,,,,,,,,,,,,,,,,,,,,,,,,,,,,,,,/muse/elements/blink
2023-08-18 19:17:44.482,1.2946682,0.673451,-0.07603088,0.80030096,0.69372916,-0.06582234,-0.35573015,0.5095269,0.60173476,0.3547564,0.6294237,0.86413354,0.5340524,0.24875267,0.96263963,0.7505196,0.22806305,-0.064081654,0.7168022,0.291403,853.00366,790.14655,815.12823,799.81683,879.19415,-0.03460693359375,0.18353271484375,0.98687744140625,4.897308349609375,-5.390777587890625,0.82244873046875,1,1.0,1.0,1.0,1.0,35.00
2023-08-18 19:17:44.768,,,,,,,,,,,,,,,,,,,,,,,,,,,,,,,,,,,,,,/muse/elements/blink
2023-08-18 19:17:45.496,1.2946682,-0.20802122,-0.07603088,0.81091017,0.69372916,-0.31953758,-0.35573015,0.44260898,0.60173476,-0.13369332,0.6294237,0.77055556,0.5340524,0.05936386,0.96263963,0.6160272,0.22806305,-0.16691448,0.7168022,0.44301715,998.86444,781.28204,782.8938,860.65936,838.9011,-0.02996826171875,0.17535400390625,0.98529052734375,4.643096923828125,-5.62255859375,0.35888671875,1,1.0,1.0,1.0,1.0,35.00
2023-08-18 19:17:46.098,,,,,,,,,,,,,,,,,,,,,,,,,,,,,,,,,,,,,,/muse/elements/blink
2023-08-18 19:17:46.508,1.1947274,-0.16060555,-0.07603088,0.49275708,0.7585444,-0.20333925,-0.35573015,0.20898587,0.66229254,-0.02762202,0.6294237,0.6579988,0.64385676,-0.16749428,0.96263963,0.6064272,0.4199965,-0.15600997,0.7168022,0.23131181,477.87546,782.0879,769.19415,642.27106,793.7729,-0.025390625,0.18341064453125,0.986328125,4.90478515625,-5.4730224609375,1.016845703125,1,1.0,1.0,1.0,1.0,40.00
2023-08-18 19:17:47.338,,,,,,,,,,,,,,,,,,,,,,,,,,,,,,,,,,,,,,/muse/elements/blink
2023-08-18 19:17:47.518,1.1947274,-0.49615765,-0.07603088,0.7004491,0.7585444,-0.086973324,-0.35573015,0.19940642,0.66229254,0.2424326,0.6294237,0.35142177,0.64385676,-0.23840578,0.96263963,0.52494764,0.4199965,-0.26274323,0.7168022,0.016016379,849.3773,778.0586,798.60803,791.75824,679.34064,-0.015625,0.179931640625,0.9921875,4.628143310546875,-5.510406494140625,0.299072265625,1,1.0,1.0,1.0,1.0,40.00
2023-08-18 19:17:48.520,1.1947274,-0.36208645,-0.07603088,0.617264,0.7585444,-0.16363737,-0.35573015,0.21969151,0.66229254,0.20084295,0.6294237,0.46675727,0.64385676,-0.028455852,0.96263963,0.4316986,0.4199965,-0.3273047,0.7168022,0.14395803,1000.87915,791.3553,780.87915,873.1502,907.3993,-0.0113525390625,0.18115234375,0.98779296875,4.9346923828125,-4.792633056640625,1.024322509765625,1,1.0,1.0,1.0,1.0,40.00
2023-08-18 19:17:48.539,,,,,,,,,,,,,,,,,,,,,,,,,,,,,,,,,,,,,,/muse/elements/blink
